File: exp data/EIS mpt files/single type/RM_stacked second run D3_1_C07.mpt
EC-Lab ASCII FILE
Nb header lines : 70

Potentio Electrochemical Impedance Spectroscopy

Run on channel : 7 (SN 13829)
User :
CE vs. WE compliance from -10 V to 10 V
Electrode connection : standard
Potential control : Ewe
Ewe ctrl range : min = -1.00 V, max = 1.00 V
Safety Limits :
	Do not start on E overload
Acquisition started on : 09/05/2018 13:41:21.000
Loaded Setting File : NONE
Saved on :
	File : RM_stacked second run D3_1_C07.mpr
	Directory : D:\Robert\Stacked cells\Second run 3% and 12% PVDF electrodes 12%compressed\
	Host : 10.5.5.6
Device : VMP3 (SN 0628)
Address : 10.5.5.5
EC-Lab for windows v11.17 (software)
Internet server v11.16 (firmware)
Command interpretor v11.16 (firmware)
Electrode material :
Initial state :
Electrolyte :
Comments :
Electrode surface area : 0.001 cm²
Characteristic mass : 0.001 g
Equivalent Weight : 0.000 g/eq.
Density : 0.000 g/cm3
Volume (V) : 0.000 m³
Text export
   Mode : Standard
   Time format : Elapsed
Cycle Definition : Charge/Discharge alternance
Mode                Single sine
E (V)               0.0000
vs.                 Eoc
tE (h:m:s)          0:00:3.0000
record              1
dI                  0.000
unit dI             mA
dt (s)              60.000
fi                  200.000
unit fi             kHz
ff                  10.000
unit ff             mHz
Nd                  8
Points              per decade
spacing             Logarithmic
Va (mV)             20.0
pw                  3.00
Na                  5
corr                0
E range min (V)     -1.000
E range max (V)     1.000
I Range             Auto
Bandwidth           5
nc cycles           0
goto Ns'            0
nr cycles           0
inc. cycle          0

Modify on : 09/05/2018 14:32
No text export
ff                  8.000

freq/Hz	Re(Z)/Ohm	-Im(Z)/Ohm	|Z|/Ohm	Phase(Z)/deg	time/s	<Ewe>/V	<I>/mA	Cs/µF	Cp/µF	cycle number	I Range	|Ewe|/V	|I|/A	Re(Y)/Ohm-1	Im(Y)/Ohm-1	|Y|/Ohm-1	Phase(Y)/deg	Re(C)/nF	Im(C)/nF	|C|/nF	Phase(C)/deg	Re(M)	Im(M)	|M|	Phase(M)/deg	Re(Permittivity)	Im(Permittivity)	|Permittivity|	Phase(Permittivity)/deg	Re(Resistivity)/Ohm.cm	Im(Resistivity)/Ohm.cm	|Resistivity|/Ohm.cm	Phase(Resistivity)/deg	Re(Conductivity)/mS/cm	Im(Conductivity)/mS/cm	|Conductivity|/mS/cm	Phase(Conductivity)/deg	Tan(Delta)	Loss Angle(Delta)/deg
200019	158.135	0.00140441	158.135	-0.000508849	09/05/2018 13:41:26.3321	0.0102193	-0.00114413	566.569	4.46875e-08	1	11	0.0183454	0.000116011	0.00632371	5.61614e-08	0.00632371	0.000508849	4.48913e-05	5.03176	5.03176	-89.9995	0.0000000E+000	0.0000000E+000	0.0000000E+000	89.9995	0.0000000E+000	0.0000000E+000	0.0000000E+000	-89.9995	0.0000000E+000	0.0000000E+000	0.0000000E+000	-0.000508849	0.0000000E+000	0.0000000E+000	0.0000000E+000	0.000508849	112599	89.9995
83828.1	156.426	0.461867	156.427	-0.169172	09/05/2018 13:41:29.5271	0.0107491	0.00216119	4.11068	3.58363e-05	1	11	0.0206523	0.000132025	0.00639273	1.88753e-05	0.00639276	0.169172	0.0358368	12.1372	12.1372	-89.8308	0.0000000E+000	0.0000000E+000	0.0000000E+000	89.8308	0.0000000E+000	0.0000000E+000	0.0000000E+000	-89.8308	0.0000000E+000	0.0000000E+000	0.0000000E+000	-0.169172	0.0000000E+000	0.0000000E+000	0.0000000E+000	0.169172	338.683	89.8308
35136.7	156.485	1.16732	156.489	-0.427399	09/05/2018 13:41:32.7201	0.0107739	0.00235848	3.88033	0.000215914	1	11	0.0204206	0.000130492	0.00639005	4.76675e-05	0.00639023	0.427399	0.215914	28.9443	28.9451	-89.5726	0.0000000E+000	0.0000000E+000	0.0000000E+000	89.5726	0.0000000E+000	0.0000000E+000	0.0000000E+000	-89.5726	0.0000000E+000	0.0000000E+000	0.0000000E+000	-0.427399	0.0000000E+000	0.0000000E+000	0.0000000E+000	0.427399	134.054	89.5726
14726.6	157.133	1.92361	157.145	-0.701378	09/05/2018 13:41:35.7881	0.0107748	0.00234691	5.61825	0.000841857	1	11	0.0202504	0.000128865	0.00636309	7.78968e-05	0.00636357	0.701378	0.841857	68.7681	68.7733	-89.2986	0.0000000E+000	0.0000000E+000	0.0000000E+000	89.2986	0.0000000E+000	0.0000000E+000	0.0000000E+000	-89.2986	0.0000000E+000	0.0000000E+000	0.0000000E+000	-0.701378	0.0000000E+000	0.0000000E+000	0.0000000E+000	0.701378	81.6862	89.2986
6195.49	158.215	2.89406	158.242	-1.04793	09/05/2018 13:41:39.2328	0.0107725	0.00228613	8.87641	0.00296898	1	11	0.0213752	0.000135079	0.00631838	0.000115575	0.00631944	1.04793	2.96898	162.312	162.339	-88.9521	0.0000000E+000	0.0000000E+000	0.0000000E+000	88.9521	0.0000000E+000	0.0000000E+000	0.0000000E+000	-88.9521	0.0000000E+000	0.0000000E+000	0.0000000E+000	-1.04793	0.0000000E+000	0.0000000E+000	0.0000000E+000	1.04793	54.6691	88.9521
2585.83	159.892	4.35272	159.951	-1.55937	09/05/2018 13:41:44.2957	0.0107769	0.00234934	14.1403	0.0104714	1	11	0.0215883	0.000134968	0.00624958	0.000170131	0.0062519	1.55937	10.4714	384.655	384.798	-88.4406	0.0000000E+000	0.0000000E+000	0.0000000E+000	88.4406	0.0000000E+000	0.0000000E+000	0.0000000E+000	-88.4406	0.0000000E+000	0.0000000E+000	0.0000000E+000	-1.55937	0.0000000E+000	0.0000000E+000	0.0000000E+000	1.55937	36.7339	88.4406
1083.96	162.28	6.39994	162.406	-2.25844	09/05/2018 13:41:49.3600	0.0107741	0.00229657	22.942	0.035627	1	11	0.0216229	0.000133141	0.00615262	0.000242645	0.00615741	2.25844	35.6269	903.374	904.076	-87.7416	0.0000000E+000	0.0000000E+000	0.0000000E+000	87.7416	0.0000000E+000	0.0000000E+000	0.0000000E+000	-87.7416	0.0000000E+000	0.0000000E+000	0.0000000E+000	-2.25844	0.0000000E+000	0.0000000E+000	0.0000000E+000	2.25844	25.3565	87.7416
454.564	165.732	9.56652	166.008	-3.30361	09/05/2018 13:41:54.4140	0.0107724	0.00221564	36.5992	0.121541	1	11	0.0216261	0.000130272	0.00601381	0.000347134	0.00602382	3.30361	121.541	2105.6	2109.1	-86.6964	0.0000000E+000	0.0000000E+000	0.0000000E+000	86.6964	0.0000000E+000	0.0000000E+000	0.0000000E+000	-86.6964	0.0000000E+000	0.0000000E+000	0.0000000E+000	-3.30361	0.0000000E+000	0.0000000E+000	0.0000000E+000	3.30361	17.3241	86.6964
190.549	170.867	14.6008	171.489	-4.88414	09/05/2018 13:41:59.4742	0.0107714	0.00223839	57.2055	0.414683	1	11	0.0216236	0.000126093	0.00581009	0.00049648	0.00583127	4.88414	414.682	4852.85	4870.54	-85.1159	0.0000000E+000	0.0000000E+000	0.0000000E+000	85.1159	0.0000000E+000	0.0000000E+000	0.0000000E+000	-85.1159	0.0000000E+000	0.0000000E+000	0.0000000E+000	-4.88414	0.0000000E+000	0.0000000E+000	0.0000000E+000	4.88414	11.7026	85.1159
79.8212	178.804	22.486	180.212	-7.16775	09/05/2018 13:42:04.5412	0.0107752	0.00227121	88.6728	1.38052	1	11	0.0216191	0.000119965	0.00550564	0.000692376	0.00554901	7.16775	1380.52	10977.7	11064.1	-82.8323	0.0000000E+000	0.0000000E+000	0.0000000E+000	82.8323	0.0000000E+000	0.0000000E+000	0.0000000E+000	-82.8323	0.0000000E+000	0.0000000E+000	0.0000000E+000	-7.16775	0.0000000E+000	0.0000000E+000	0.0000000E+000	7.16775	7.95181	82.8323
33.4276	191.37	34.6351	194.479	-10.2586	09/05/2018 13:42:09.9412	0.0107667	0.000172934	137.467	4.36001	1	12	0.0216288	0.000111214	0.00505975	0.00091574	0.00514195	10.2586	4360.01	24090.4	24481.8	-79.7414	0.0000000E+000	0.0000000E+000	0.0000000E+000	79.7414	0.0000000E+000	0.0000000E+000	0.0000000E+000	-79.7414	0.0000000E+000	0.0000000E+000	0.0000000E+000	-10.2586	0.0000000E+000	0.0000000E+000	0.0000000E+000	10.2586	5.52531	79.7414
14.0176	210.674	52.8785	217.209	-14.09	09/05/2018 13:42:15.2208	0.0107683	0.000194675	214.717	12.7253	1	12	0.0216273	9.9569e-05	0.00446535	0.00112079	0.00460386	14.09	12725.3	50699.2	52271.8	-75.91	0.0000000E+000	0.0000000E+000	0.0000000E+000	75.91	0.0000000E+000	0.0000000E+000	0.0000000E+000	-75.91	0.0000000E+000	0.0000000E+000	0.0000000E+000	-14.09	0.0000000E+000	0.0000000E+000	0.0000000E+000	14.09	3.98412	75.91
5.88291	240.04	79.9188	252.995	-18.4146	09/05/2018 13:42:20.4047	0.0107649	0.000144758	338.516	33.7796	1	12	0.0216209	8.54597e-05	0.00375026	0.00124861	0.00395265	18.4146	33779.6	101459	106934	-71.5854	0.0000000E+000	0.0000000E+000	0.0000000E+000	71.5854	0.0000000E+000	0.0000000E+000	0.0000000E+000	-71.5854	0.0000000E+000	0.0000000E+000	0.0000000E+000	-18.4146	0.0000000E+000	0.0000000E+000	0.0000000E+000	18.4146	3.00355	71.5854
2.46607	284.183	120.678	308.744	-23.0085	09/05/2018 13:42:28.1454	0.0107765	0.000214337	534.793	81.7047	1	12	0.0216206	7.00276e-05	0.00298126	0.00126599	0.00323893	23.0085	81704.6	192404	209034	-66.9915	0.0000000E+000	0.0000000E+000	0.0000000E+000	66.9915	0.0000000E+000	0.0000000E+000	0.0000000E+000	-66.9915	0.0000000E+000	0.0000000E+000	0.0000000E+000	-23.0085	0.0000000E+000	0.0000000E+000	0.0000000E+000	23.0085	2.35488	66.9915
1.0334	350.439	182.605	395.161	-27.523	09/05/2018 13:42:46.2430	0.0107782	0.000251657	843.409	180.102	1	12	0.0216211	5.47146e-05	0.00224421	0.00116941	0.00253061	27.523	180102	345634	389743	-62.477	0.0000000E+000	0.0000000E+000	0.0000000E+000	62.477	0.0000000E+000	0.0000000E+000	0.0000000E+000	-62.477	0.0000000E+000	0.0000000E+000	0.0000000E+000	-27.523	0.0000000E+000	0.0000000E+000	0.0000000E+000	27.523	1.9191	62.477
0.433065	449.684	277.951	528.651	-31.7203	09/05/2018 13:43:30.8889	0.0107863	-9.85024e-06	1322.21	365.507	1	13	0.0216234	4.09029e-05	0.00160905	0.000994555	0.00189161	31.7203	365507	591337	695180	-58.2797	0.0000000E+000	0.0000000E+000	0.0000000E+000	58.2797	0.0000000E+000	0.0000000E+000	0.0000000E+000	-58.2797	0.0000000E+000	0.0000000E+000	0.0000000E+000	-31.7203	0.0000000E+000	0.0000000E+000	0.0000000E+000	31.7203	1.61786	58.2797
0.181534	605.625	422.327	738.338	-34.8896	09/05/2018 13:45:12.9274	0.0107914	1.41551e-05	2075.93	679.206	1	13	0.0216227	2.92857e-05	0.00111095	0.00077471	0.00135439	34.8896	679205	973994	1.18743e+06	-55.1104	0.0000000E+000	0.0000000E+000	0.0000000E+000	55.1104	0.0000000E+000	0.0000000E+000	0.0000000E+000	-55.1104	0.0000000E+000	0.0000000E+000	0.0000000E+000	-34.8896	0.0000000E+000	0.0000000E+000	0.0000000E+000	34.8896	1.43402	55.1104
0.0761037	808.658	611.523	1013.85	-37.0973	09/05/2018 13:49:15.9360	0.0107909	2.29065e-05	3419.81	1244.18	1	13	0.0216203	2.1325e-05	0.000786718	0.000594932	0.000986341	37.0973	1.24418e+06	1.64526e+06	2.06273e+06	-52.9027	0.0000000E+000	0.0000000E+000	0.0000000E+000	52.9027	0.0000000E+000	0.0000000E+000	0.0000000E+000	-52.9027	0.0000000E+000	0.0000000E+000	0.0000000E+000	-37.0973	0.0000000E+000	0.0000000E+000	0.0000000E+000	37.0973	1.32237	52.9027
0.0319138	944.361	1013.07	1384.97	-47.0104	09/05/2018 13:58:55.2333	0.0107857	5.58894e-06	4922.67	2633.92	1	13	0.0216219	1.56119e-05	0.000492333	0.000528155	0.000722039	47.0104	2.63392e+06	2.45528e+06	3.60083e+06	-42.9896	0.0000000E+000	0.0000000E+000	0.0000000E+000	42.9896	0.0000000E+000	0.0000000E+000	0.0000000E+000	-42.9896	0.0000000E+000	0.0000000E+000	0.0000000E+000	-47.0104	0.0000000E+000	0.0000000E+000	0.0000000E+000	47.0104	0.932175	42.9896
0.0133776	1027.13	2111.88	2348.41	-64.0635	09/05/2018 14:21:57.8615	0.0108072	2.22611e-05	5633.44	4555.79	1	13	0.0216201	9.20626e-06	0.000186242	0.000382931	0.00042582	64.0635	4.55579e+06	2.21575e+06	5.06604e+06	-25.9365	0.0000000E+000	0.0000000E+000	0.0000000E+000	25.9365	0.0000000E+000	0.0000000E+000	0.0000000E+000	-25.9365	0.0000000E+000	0.0000000E+000	0.0000000E+000	-64.0635	0.0000000E+000	0.0000000E+000	0.0000000E+000	64.0635	0.48636	25.9365
0.0080046	1087.1	3418.5	3587.19	-72.359	09/05/2018 14:51:51.8604	0.0108127	2.5274e-05	5816.28	5282.11	1	13	0.0216198	6.02694e-06	8.44817e-05	0.000265661	0.00027877	72.359	5.28211e+06	1.67974e+06	5.54276e+06	-17.641	0.0000000E+000	0.0000000E+000	0.0000000E+000	17.641	0.0000000E+000	0.0000000E+000	0.0000000E+000	-17.641	0.0000000E+000	0.0000000E+000	0.0000000E+000	-72.359	0.0000000E+000	0.0000000E+000	0.0000000E+000	72.359	0.318006	17.641