File: exp data/EIS mpt files/single type/RM_stacked second run S12_1_C05.mpt
EC-Lab ASCII FILE
Nb header lines : 66

Potentio Electrochemical Impedance Spectroscopy

Run on channel : 5 (SN 13220)
User :
CE vs. WE compliance from -10 V to 10 V
Electrode connection : standard
Potential control : Ewe
Ewe ctrl range : min = -1.00 V, max = 1.00 V
Safety Limits :
	Do not start on E overload
Acquisition started on : 09/05/2018 13:40:50.000
Loaded Setting File : NONE
Saved on :
	File : RM_stacked second run S12_1_C05.mpr
	Directory : D:\Robert\Stacked cells\Second run 3% and 12% PVDF electrodes 12%compressed\
	Host : 10.5.5.6
Device : VMP3 (SN 0628)
Address : 10.5.5.5
EC-Lab for windows v11.17 (software)
Internet server v11.16 (firmware)
Command interpretor v11.16 (firmware)
Electrode material :
Initial state :
Electrolyte :
Comments :
Electrode surface area : 0.001 cm²
Characteristic mass : 0.001 g
Equivalent Weight : 0.000 g/eq.
Density : 0.000 g/cm3
Volume (V) : 0.000 m³
Text export
   Mode : Standard
   Time format : Elapsed
Cycle Definition : Charge/Discharge alternance
Mode                Single sine
E (V)               0.0000
vs.                 Eoc
tE (h:m:s)          0:00:3.0000
record              1
dI                  0.000
unit dI             mA
dt (s)              60.000
fi                  200.000
unit fi             kHz
ff                  10.000
unit ff             mHz
Nd                  8
Points              per decade
spacing             Logarithmic
Va (mV)             20.0
pw                  3.00
Na                  5
corr                0
E range min (V)     -1.000
E range max (V)     1.000
I Range             Auto
Bandwidth           5
nc cycles           0
goto Ns'            0
nr cycles           0
inc. cycle          0

freq/Hz	Re(Z)/Ohm	-Im(Z)/Ohm	|Z|/Ohm	Phase(Z)/deg	time/s	<Ewe>/V	<I>/mA	Cs/µF	Cp/µF	cycle number	I Range	|Ewe|/V	|I|/A	Re(Y)/Ohm-1	Im(Y)/Ohm-1	|Y|/Ohm-1	Phase(Y)/deg	Re(C)/nF	Im(C)/nF	|C|/nF	Phase(C)/deg	Re(M)	Im(M)	|M|	Phase(M)/deg	Re(Permittivity)	Im(Permittivity)	|Permittivity|	Phase(Permittivity)/deg	Re(Resistivity)/Ohm.cm	Im(Resistivity)/Ohm.cm	|Resistivity|/Ohm.cm	Phase(Resistivity)/deg	Re(Conductivity)/mS/cm	Im(Conductivity)/mS/cm	|Conductivity|/mS/cm	Phase(Conductivity)/deg	Tan(Delta)	Loss Angle(Delta)/deg
200019	147.156	-1.52589	147.163	0.59409	09/05/2018 13:40:55.3321	0.00569994	0.00458816	-0.521466	-5.60621e-05	1	11	0.0184472	0.000125351	0.0067948	-7.04566e-05	0.00679516	-0.59409	-0.0560624	5.4066	5.40689	-90.5941	0.0000000E+000	0.0000000E+000	0.0000000E+000	90.5941	0.0000000E+000	0.0000000E+000	0.0000000E+000	-90.5941	0.0000000E+000	0.0000000E+000	0.0000000E+000	0.59409	0.0000000E+000	0.0000000E+000	0.0000000E+000	-0.59409	96.4395	89.4059
83828.1	146.022	-0.064683	146.022	0.0253802	09/05/2018 13:40:58.5261	0.00536041	0.00204741	-29.3522	-5.75953e-06	1	11	0.0206937	0.000141717	0.0068483	-3.03359e-06	0.0068483	-0.0253802	-0.00576015	13.0021	13.0021	-90.0254	0.0000000E+000	0.0000000E+000	0.0000000E+000	90.0254	0.0000000E+000	0.0000000E+000	0.0000000E+000	-90.0254	0.0000000E+000	0.0000000E+000	0.0000000E+000	0.0253802	0.0000000E+000	0.0000000E+000	0.0000000E+000	-0.0253802	2257.49	89.9746
35136.7	146.174	0.885859	146.177	-0.347225	09/05/2018 13:41:01.7191	0.00537883	0.00198027	5.11322	0.000187787	1	11	0.0204138	0.000139652	0.0068409	4.14579e-05	0.00684103	0.347225	0.187789	30.9865	30.9871	-89.6528	0.0000000E+000	0.0000000E+000	0.0000000E+000	89.6528	0.0000000E+000	0.0000000E+000	0.0000000E+000	-89.6528	0.0000000E+000	0.0000000E+000	0.0000000E+000	-0.347225	0.0000000E+000	0.0000000E+000	0.0000000E+000	0.347225	165.008	89.6528
14726.6	146.735	1.69378	146.745	-0.661344	09/05/2018 13:41:04.7881	0.00538324	0.0019909	6.38059	0.000850064	1	11	0.0203978	0.000139002	0.0068141	7.86562e-05	0.00681455	0.661344	0.850067	73.6423	73.6472	-89.3387	0.0000000E+000	0.0000000E+000	0.0000000E+000	89.3387	0.0000000E+000	0.0000000E+000	0.0000000E+000	-89.3387	0.0000000E+000	0.0000000E+000	0.0000000E+000	-0.661344	0.0000000E+000	0.0000000E+000	0.0000000E+000	0.661344	86.6315	89.3387
6195.49	147.691	2.7112	147.715	-1.05168	09/05/2018 13:41:08.2338	0.00538958	0.00198549	9.47507	0.00319194	1	11	0.0215996	0.000146225	0.00676863	0.000124254	0.00676977	1.05168	3.19195	173.878	173.908	-88.9483	0.0000000E+000	0.0000000E+000	0.0000000E+000	88.9483	0.0000000E+000	0.0000000E+000	0.0000000E+000	-88.9483	0.0000000E+000	0.0000000E+000	0.0000000E+000	-1.05168	0.0000000E+000	0.0000000E+000	0.0000000E+000	1.05168	54.4742	88.9483
2585.83	149.162	4.17288	149.22	-1.60246	09/05/2018 13:41:13.2977	0.00540075	0.00204163	14.7497	0.0115346	1	11	0.021827	0.000146273	0.00669888	0.000187405	0.0067015	1.60246	11.5346	412.309	412.47	-88.3975	0.0000000E+000	0.0000000E+000	0.0000000E+000	88.3975	0.0000000E+000	0.0000000E+000	0.0000000E+000	-88.3975	0.0000000E+000	0.0000000E+000	0.0000000E+000	-1.60246	0.0000000E+000	0.0000000E+000	0.0000000E+000	1.60246	35.7456	88.3975
1083.96	151.45	6.47641	151.588	-2.44863	09/05/2018 13:41:18.3629	0.00539367	0.00199071	22.6711	0.041382	1	11	0.0218615	0.000144216	0.0065908	0.000281841	0.00659682	2.44863	41.3819	967.71	968.595	-87.5514	0.0000000E+000	0.0000000E+000	0.0000000E+000	87.5514	0.0000000E+000	0.0000000E+000	0.0000000E+000	-87.5514	0.0000000E+000	0.0000000E+000	0.0000000E+000	-2.44863	0.0000000E+000	0.0000000E+000	0.0000000E+000	2.44863	23.3848	87.5514
454.564	154.792	10.1316	155.124	-3.74483	09/05/2018 13:41:23.4180	0.00538416	0.00193345	34.5579	0.147417	1	11	0.0218657	0.000140957	0.0064327	0.000421038	0.00644647	3.74483	147.417	2252.26	2257.08	-86.2552	0.0000000E+000	0.0000000E+000	0.0000000E+000	86.2552	0.0000000E+000	0.0000000E+000	0.0000000E+000	-86.2552	0.0000000E+000	0.0000000E+000	0.0000000E+000	-3.74483	0.0000000E+000	0.0000000E+000	0.0000000E+000	3.74483	15.2782	86.2552
190.549	160.024	16.0198	160.824	-5.71679	09/05/2018 13:41:28.4782	0.00538745	0.0019618	52.1382	0.517336	1	11	0.0218644	0.000135953	0.00618707	0.000619383	0.00621799	5.71679	517.336	5167.72	5193.55	-84.2832	0.0000000E+000	0.0000000E+000	0.0000000E+000	84.2832	0.0000000E+000	0.0000000E+000	0.0000000E+000	-84.2832	0.0000000E+000	0.0000000E+000	0.0000000E+000	-5.71679	0.0000000E+000	0.0000000E+000	0.0000000E+000	5.71679	9.98909	84.2832
79.8212	168.351	25.7765	170.312	-8.70508	09/05/2018 13:41:33.5452	0.00539353	0.00195248	77.353	1.77188	1	11	0.0218666	0.000128391	0.00580392	0.000888651	0.00587156	8.70508	1771.88	11572.4	11707.3	-81.2949	0.0000000E+000	0.0000000E+000	0.0000000E+000	81.2949	0.0000000E+000	0.0000000E+000	0.0000000E+000	-81.2949	0.0000000E+000	0.0000000E+000	0.0000000E+000	-8.70508	0.0000000E+000	0.0000000E+000	0.0000000E+000	8.70508	6.53116	81.2949
33.4276	181.936	41.9028	186.699	-12.97	09/05/2018 13:41:38.9542	0.00538752	0.000169186	113.625	5.72368	1	12	0.0218764	0.000117175	0.00521957	0.00120215	0.00535622	12.97	5723.68	24851.4	25502	-77.03	0.0000000E+000	0.0000000E+000	0.0000000E+000	77.03	0.0000000E+000	0.0000000E+000	0.0000000E+000	-77.03	0.0000000E+000	0.0000000E+000	0.0000000E+000	-12.97	0.0000000E+000	0.0000000E+000	0.0000000E+000	12.97	4.34185	77.03
14.0176	204.404	67.2612	215.186	-18.2143	09/05/2018 13:41:44.2318	0.00538861	0.000187273	168.803	16.4923	1	12	0.0218702	0.000101634	0.00441429	0.00145256	0.00464714	18.2143	16492.3	50119.4	52763.1	-71.7857	0.0000000E+000	0.0000000E+000	0.0000000E+000	71.7857	0.0000000E+000	0.0000000E+000	0.0000000E+000	-71.7857	0.0000000E+000	0.0000000E+000	0.0000000E+000	-18.2143	0.0000000E+000	0.0000000E+000	0.0000000E+000	18.2143	3.03896	71.7857
5.88291	238.475	104.576	260.396	-23.6784	09/05/2018 13:41:49.4147	0.00538429	0.000292715	258.701	41.7243	1	12	0.021863	8.39605e-05	0.003517	0.00154227	0.0038403	23.6784	41724.3	95148.3	103895	-66.3216	0.0000000E+000	0.0000000E+000	0.0000000E+000	66.3216	0.0000000E+000	0.0000000E+000	0.0000000E+000	-66.3216	0.0000000E+000	0.0000000E+000	0.0000000E+000	-23.6784	0.0000000E+000	0.0000000E+000	0.0000000E+000	23.6784	2.2804	66.3216
2.46607	274.101	169.081	322.056	-31.6686	09/05/2018 13:41:57.1543	0.00538755	0.000229821	381.698	105.208	1	12	0.0218658	6.78944e-05	0.00264271	0.00163017	0.00310505	31.6686	105208	170555	200394	-58.3314	0.0000000E+000	0.0000000E+000	0.0000000E+000	58.3314	0.0000000E+000	0.0000000E+000	0.0000000E+000	-58.3314	0.0000000E+000	0.0000000E+000	0.0000000E+000	-31.6686	0.0000000E+000	0.0000000E+000	0.0000000E+000	31.6686	1.62112	58.3314
1.0334	303.366	324.817	444.451	-46.9558	09/05/2018 13:42:16.2649	0.00538824	4.65396e-06	474.148	253.246	1	13	0.0218687	4.92037e-05	0.00153574	0.00164434	0.00224997	46.9558	253246	236522	346520	-43.0442	0.0000000E+000	0.0000000E+000	0.0000000E+000	43.0442	0.0000000E+000	0.0000000E+000	0.0000000E+000	-43.0442	0.0000000E+000	0.0000000E+000	0.0000000E+000	-46.9558	0.0000000E+000	0.0000000E+000	0.0000000E+000	46.9558	0.93396	43.0442
0.433065	340.087	704.123	781.952	-64.2198	09/05/2018 13:42:59.1393	0.00539581	1.618e-05	521.937	423.209	1	13	0.0218605	2.79564e-05	0.000556198	0.00115157	0.00127885	64.2198	423210	204407	469988	-25.7802	0.0000000E+000	0.0000000E+000	0.0000000E+000	25.7802	0.0000000E+000	0.0000000E+000	0.0000000E+000	-25.7802	0.0000000E+000	0.0000000E+000	0.0000000E+000	-64.2198	0.0000000E+000	0.0000000E+000	0.0000000E+000	64.2198	0.482993	25.7802
0.181534	412.966	1588.55	1641.35	-75.4277	09/05/2018 13:44:41.1777	0.00539524	1.90718e-05	551.901	516.964	1	13	0.0218616	1.33193e-05	0.000153289	0.000589655	0.000609255	75.4277	516964	134392	534147	-14.5723	0.0000000E+000	0.0000000E+000	0.0000000E+000	14.5723	0.0000000E+000	0.0000000E+000	0.0000000E+000	-14.5723	0.0000000E+000	0.0000000E+000	0.0000000E+000	-75.4277	0.0000000E+000	0.0000000E+000	0.0000000E+000	75.4277	0.259964	14.5723
0.0761037	584.659	3621.69	3668.57	-80.8297	09/05/2018 13:48:44.1862	0.00539669	1.63176e-05	577.436	562.77	1	13	0.0218623	5.95935e-06	4.34418e-05	0.000269102	0.000272585	80.8297	562770	90849.5	570055	-9.1703	0.0000000E+000	0.0000000E+000	0.0000000E+000	9.1703	0.0000000E+000	0.0000000E+000	0.0000000E+000	-9.1703	0.0000000E+000	0.0000000E+000	0.0000000E+000	-80.8297	0.0000000E+000	0.0000000E+000	0.0000000E+000	80.8297	0.161433	9.1703
0.0319138	1015.29	8268.49	8330.59	-82.9997	09/05/2018 13:58:41.1011	0.00539675	-1.8502e-06	603.136	594.178	1	14	0.0218627	2.62438e-06	1.46299e-05	0.000119145	0.00012004	82.9997	594178	72959.5	598640	-7.00034	0.0000000E+000	0.0000000E+000	0.0000000E+000	7.00034	0.0000000E+000	0.0000000E+000	0.0000000E+000	-7.00034	0.0000000E+000	0.0000000E+000	0.0000000E+000	-82.9997	0.0000000E+000	0.0000000E+000	0.0000000E+000	82.9997	0.122791	7.00034
0.0133776	2174.32	18803.3	18928.6	-83.4039	09/05/2018 14:21:43.7299	0.00539551	4.30354e-07	632.715	624.366	1	14	0.0218627	1.15501e-06	6.06856e-06	5.24803e-05	5.283e-05	83.4039	624366	72198.6	628527	-6.5961	0.0000000E+000	0.0000000E+000	0.0000000E+000	6.5961	0.0000000E+000	0.0000000E+000	0.0000000E+000	-6.5961	0.0000000E+000	0.0000000E+000	0.0000000E+000	-83.4039	0.0000000E+000	0.0000000E+000	0.0000000E+000	83.4039	0.115635	6.5961
0.0100058	2923.26	24701.2	24873.6	-83.2507	09/05/2018 14:35:03.8946	0.005391	1.51076e-07	643.949	635.055	1	14	0.0218623	8.78936e-07	4.72487e-06	3.99247e-05	4.02033e-05	83.2507	635055	75155.4	639487	-6.74926	0.0000000E+000	0.0000000E+000	0.0000000E+000	6.74926	0.0000000E+000	0.0000000E+000	0.0000000E+000	-6.74926	0.0000000E+000	0.0000000E+000	0.0000000E+000	-83.2507	0.0000000E+000	0.0000000E+000	0.0000000E+000	83.2507	0.118345	6.74927