File: exp data/EIS mpt files/single type poluted/RM_stacked second run S3_1_C03.mpt
EC-Lab ASCII FILE
Nb header lines : 66

Potentio Electrochemical Impedance Spectroscopy

Run on channel : 3 (SN 13993)
User :
CE vs. WE compliance from -10 V to 10 V
Electrode connection : standard
Potential control : Ewe
Ewe ctrl range : min = -1.00 V, max = 1.00 V
Safety Limits :
	Do not start on E overload
Acquisition started on : 09/05/2018 13:40:25.000
Loaded Setting File : NONE
Saved on :
	File : RM_stacked second run S3_1_C03.mpr
	Directory : D:\Robert\Stacked cells\Second run 3% and 12% PVDF electrodes 12%compressed\
	Host : 10.5.5.6
Device : VMP3 (SN 0628)
Address : 10.5.5.5
EC-Lab for windows v11.17 (software)
Internet server v11.16 (firmware)
Command interpretor v11.16 (firmware)
Electrode material :
Initial state :
Electrolyte :
Comments :
Electrode surface area : 0.001 cm²
Characteristic mass : 0.001 g
Equivalent Weight : 0.000 g/eq.
Density : 0.000 g/cm3
Volume (V) : 0.000 m³
Text export
   Mode : Standard
   Time format : Elapsed
Cycle Definition : Charge/Discharge alternance
Mode                Single sine
E (V)               0.0000
vs.                 Eoc
tE (h:m:s)          0:00:3.0000
record              1
dI                  0.000
unit dI             mA
dt (s)              60.000
fi                  200.000
unit fi             kHz
ff                  10.000
unit ff             mHz
Nd                  8
Points              per decade
spacing             Logarithmic
Va (mV)             20.0
pw                  3.00
Na                  5
corr                0
E range min (V)     -1.000
E range max (V)     1.000
I Range             Auto
Bandwidth           5
nc cycles           0
goto Ns'            0
nr cycles           0
inc. cycle          0

freq/Hz	Re(Z)/Ohm	-Im(Z)/Ohm	|Z|/Ohm	Phase(Z)/deg	time/s	<Ewe>/V	<I>/mA	Cs/µF	Cp/µF	cycle number	I Range	|Ewe|/V	|I|/A	Re(Y)/Ohm-1	Im(Y)/Ohm-1	|Y|/Ohm-1	Phase(Y)/deg	Re(C)/nF	Im(C)/nF	|C|/nF	Phase(C)/deg	Re(M)	Im(M)	|M|	Phase(M)/deg	Re(Permittivity)	Im(Permittivity)	|Permittivity|	Phase(Permittivity)/deg	Re(Resistivity)/Ohm.cm	Im(Resistivity)/Ohm.cm	|Resistivity|/Ohm.cm	Phase(Resistivity)/deg	Re(Conductivity)/mS/cm	Im(Conductivity)/mS/cm	|Conductivity|/mS/cm	Phase(Conductivity)/deg	Tan(Delta)	Loss Angle(Delta)/deg
200019	160.179	0.95228	160.182	-0.340625	09/05/2018 13:40:30.3331	-0.0013755	0.00226125	0.835571	2.95315e-05	1	11	0.0182195	0.000113742	0.0062428	3.7114e-05	0.00624291	0.340625	0.0295313	4.96738	4.96746	-89.6594	0.0000000E+000	0.0000000E+000	0.0000000E+000	89.6594	0.0000000E+000	0.0000000E+000	0.0000000E+000	-89.6594	0.0000000E+000	0.0000000E+000	0.0000000E+000	-0.340625	0.0000000E+000	0.0000000E+000	0.0000000E+000	0.340625	168.206	89.6594
83828.1	159.799	2.55178	159.82	-0.914858	09/05/2018 13:40:33.5281	-0.00130588	0.00241118	0.744024	0.000189676	1	11	0.0206988	0.000129513	0.00625625	9.99039e-05	0.00625705	0.914858	0.189676	11.878	11.8796	-89.0851	0.0000000E+000	0.0000000E+000	0.0000000E+000	89.0851	0.0000000E+000	0.0000000E+000	0.0000000E+000	-89.0851	0.0000000E+000	0.0000000E+000	0.0000000E+000	-0.914858	0.0000000E+000	0.0000000E+000	0.0000000E+000	0.914858	62.6227	89.0851
35136.7	161.549	3.24187	161.581	-1.14963	09/05/2018 13:40:36.7231	-0.00128303	0.00244749	1.39721	0.000562437	1	11	0.0203498	0.000125941	0.0061876	0.000124169	0.00618884	1.14963	0.562437	28.0273	28.0329	-88.8504	0.0000000E+000	0.0000000E+000	0.0000000E+000	88.8504	0.0000000E+000	0.0000000E+000	0.0000000E+000	-88.8504	0.0000000E+000	0.0000000E+000	0.0000000E+000	-1.14963	0.0000000E+000	0.0000000E+000	0.0000000E+000	1.14963	49.8318	88.8504
14726.6	163.393	3.21352	163.425	-1.12671	09/05/2018 13:40:39.7921	-0.00126567	0.00245364	3.36309	0.00130036	1	11	0.0202645	0.000123999	0.00611783	0.000120322	0.00611901	1.12671	1.30035	66.1175	66.1303	-88.8733	0.0000000E+000	0.0000000E+000	0.0000000E+000	88.8733	0.0000000E+000	0.0000000E+000	0.0000000E+000	-88.8733	0.0000000E+000	0.0000000E+000	0.0000000E+000	-1.12671	0.0000000E+000	0.0000000E+000	0.0000000E+000	1.12671	50.8457	88.8733
6195.49	164.846	3.4643	164.882	-1.20391	09/05/2018 13:40:43.2388	-0.00126658	0.0022307	7.4153	0.00327349	1	11	0.0213703	0.000129609	0.00606359	0.000127429	0.00606493	1.20391	3.2735	155.766	155.801	-88.7961	0.0000000E+000	0.0000000E+000	0.0000000E+000	88.7961	0.0000000E+000	0.0000000E+000	0.0000000E+000	-88.7961	0.0000000E+000	0.0000000E+000	0.0000000E+000	-1.20391	0.0000000E+000	0.0000000E+000	0.0000000E+000	1.20391	47.5842	88.7961
2585.83	166.609	4.49438	166.67	-1.54521	09/05/2018 13:40:48.3007	-0.00126923	0.00225603	13.6947	0.0099581	1	11	0.0215813	0.000129486	0.00599771	0.000161792	0.00599989	1.54521	9.9581	369.153	369.287	-88.4548	0.0000000E+000	0.0000000E+000	0.0000000E+000	88.4548	0.0000000E+000	0.0000000E+000	0.0000000E+000	-88.4548	0.0000000E+000	0.0000000E+000	0.0000000E+000	-1.54521	0.0000000E+000	0.0000000E+000	0.0000000E+000	1.54521	37.0706	88.4548
1083.96	168.917	6.28305	169.034	-2.13019	09/05/2018 13:40:53.3649	-0.00126772	0.00214726	23.3688	0.0322872	1	11	0.0216096	0.000127842	0.00591189	0.000219899	0.00591598	2.13019	32.2872	868.027	868.627	-87.8698	0.0000000E+000	0.0000000E+000	0.0000000E+000	87.8698	0.0000000E+000	0.0000000E+000	0.0000000E+000	-87.8698	0.0000000E+000	0.0000000E+000	0.0000000E+000	-2.13019	0.0000000E+000	0.0000000E+000	0.0000000E+000	2.13019	26.8846	87.8698
454.564	172.296	9.25309	172.544	-3.0741	09/05/2018 13:40:58.4199	-0.00126384	0.0021901	37.8389	0.108821	1	11	0.0216139	0.000125266	0.00578729	0.000310805	0.00579563	3.0741	108.821	2026.29	2029.21	-86.9259	0.0000000E+000	0.0000000E+000	0.0000000E+000	86.9259	0.0000000E+000	0.0000000E+000	0.0000000E+000	-86.9259	0.0000000E+000	0.0000000E+000	0.0000000E+000	-3.0741	0.0000000E+000	0.0000000E+000	0.0000000E+000	3.0741	18.6203	86.9259
190.549	177.283	14.0617	177.839	-4.53508	09/05/2018 13:41:03.4792	-0.00127161	0.00219066	59.3987	0.37136	1	11	0.0216133	0.000121533	0.00560544	0.000444612	0.00562305	4.53508	371.36	4681.92	4696.63	-85.4649	0.0000000E+000	0.0000000E+000	0.0000000E+000	85.4649	0.0000000E+000	0.0000000E+000	0.0000000E+000	-85.4649	0.0000000E+000	0.0000000E+000	0.0000000E+000	-4.53508	0.0000000E+000	0.0000000E+000	0.0000000E+000	4.53508	12.6075	85.4649
79.8212	184.946	21.5648	186.199	-6.65069	09/05/2018 13:41:08.5462	-0.00127044	0.00211784	92.4605	1.2402	1	11	0.02161	0.000116059	0.00533446	0.000622001	0.0053706	6.65069	1240.2	10636.3	10708.4	-83.3493	0.0000000E+000	0.0000000E+000	0.0000000E+000	83.3493	0.0000000E+000	0.0000000E+000	0.0000000E+000	-83.3493	0.0000000E+000	0.0000000E+000	0.0000000E+000	-6.65069	0.0000000E+000	0.0000000E+000	0.0000000E+000	6.65069	8.57629	83.3493
33.4276	196.891	33.1273	199.658	-9.55069	09/05/2018 13:41:13.9452	-0.00127183	0.000144149	143.724	3.95665	1	12	0.0216222	0.000108296	0.00493914	0.000831022	0.00500857	9.55069	3956.65	23516.2	23846.7	-80.4493	0.0000000E+000	0.0000000E+000	0.0000000E+000	80.4493	0.0000000E+000	0.0000000E+000	0.0000000E+000	-80.4493	0.0000000E+000	0.0000000E+000	0.0000000E+000	-9.55069	0.0000000E+000	0.0000000E+000	0.0000000E+000	9.55069	5.94346	80.4493
14.0176	215.249	50.461	221.085	-13.1936	09/05/2018 13:41:19.2238	-0.00127907	0.000197824	225.004	11.7215	1	12	0.0216139	9.77627e-05	0.00440375	0.00103237	0.00452315	13.1936	11721.5	49999.8	51355.4	-76.8064	0.0000000E+000	0.0000000E+000	0.0000000E+000	76.8064	0.0000000E+000	0.0000000E+000	0.0000000E+000	-76.8064	0.0000000E+000	0.0000000E+000	0.0000000E+000	-13.1936	0.0000000E+000	0.0000000E+000	0.0000000E+000	13.1936	4.26566	76.8064
5.88291	243.208	76.3745	254.918	-17.4338	09/05/2018 13:41:24.4077	-0.00127804	0.000190326	354.225	31.7961	1	12	0.0216132	8.4785e-05	0.00374262	0.00117529	0.00392282	17.4338	31796.1	101252	106127	-72.5662	0.0000000E+000	0.0000000E+000	0.0000000E+000	72.5662	0.0000000E+000	0.0000000E+000	0.0000000E+000	-72.5662	0.0000000E+000	0.0000000E+000	0.0000000E+000	-17.4338	0.0000000E+000	0.0000000E+000	0.0000000E+000	17.4338	3.18442	72.5662
2.46607	285.165	115.378	307.621	-22.0283	09/05/2018 13:41:32.1454	-0.00129883	0.000162336	559.363	78.6872	1	12	0.0216111	7.02524e-05	0.00301344	0.00121924	0.00325075	22.0283	78687.3	194481	209797	-67.9717	0.0000000E+000	0.0000000E+000	0.0000000E+000	67.9717	0.0000000E+000	0.0000000E+000	0.0000000E+000	-67.9717	0.0000000E+000	0.0000000E+000	0.0000000E+000	-22.0283	0.0000000E+000	0.0000000E+000	0.0000000E+000	22.0283	2.47158	67.9717
1.0334	349.012	174.714	390.3	-26.5924	09/05/2018 13:41:50.2428	-0.00126555	0.000238123	881.504	176.637	1	12	0.0216106	5.53691e-05	0.00229109	0.00114691	0.00256213	26.5924	176637	352854	394596	-63.4076	0.0000000E+000	0.0000000E+000	0.0000000E+000	63.4076	0.0000000E+000	0.0000000E+000	0.0000000E+000	-63.4076	0.0000000E+000	0.0000000E+000	0.0000000E+000	-26.5924	0.0000000E+000	0.0000000E+000	0.0000000E+000	26.5924	1.99762	63.4076
0.433065	434.117	255.052	503.497	-30.435	09/05/2018 13:42:34.8892	-0.00126358	9.80059e-05	1440.91	369.744	1	13	0.0216111	4.29219e-05	0.00171243	0.00100609	0.00198611	30.435	369744	629332	729911	-59.565	0.0000000E+000	0.0000000E+000	0.0000000E+000	59.565	0.0000000E+000	0.0000000E+000	0.0000000E+000	-59.565	0.0000000E+000	0.0000000E+000	0.0000000E+000	-30.435	0.0000000E+000	0.0000000E+000	0.0000000E+000	30.435	1.70207	59.565
0.181534	498.147	419.589	651.311	-40.1074	09/05/2018 13:44:16.9263	-0.00129323	6.10904e-05	2089.48	867.181	1	13	0.0216124	3.31829e-05	0.00117431	0.000989117	0.00153537	40.1074	867181	1.02954e+06	1.34609e+06	-49.8926	0.0000000E+000	0.0000000E+000	0.0000000E+000	49.8926	0.0000000E+000	0.0000000E+000	0.0000000E+000	-49.8926	0.0000000E+000	0.0000000E+000	0.0000000E+000	-40.1074	0.0000000E+000	0.0000000E+000	0.0000000E+000	40.1074	1.18723	49.8926
0.0761037	545.081	854.891	1013.88	-57.4783	09/05/2018 13:48:19.9337	-0.00126299	5.35092e-05	2446.27	1739.21	1	13	0.0216095	2.13137e-05	0.000530259	0.000831645	0.00098631	57.4783	1.73921e+06	1.10893e+06	2.06266e+06	-32.5217	0.0000000E+000	0.0000000E+000	0.0000000E+000	32.5217	0.0000000E+000	0.0000000E+000	0.0000000E+000	-32.5217	0.0000000E+000	0.0000000E+000	0.0000000E+000	-57.4783	0.0000000E+000	0.0000000E+000	0.0000000E+000	57.4783	0.637602	32.5217
0.0319138	616.816	1913.76	2010.7	-72.1355	09/05/2018 13:57:59.2290	-0.00126827	4.68138e-05	2605.89	2360.66	1	13	0.0216081	1.07465e-05	0.000152567	0.00047336	0.000497339	72.1355	2.36066e+06	760855	2.48024e+06	-17.8645	0.0000000E+000	0.0000000E+000	0.0000000E+000	17.8645	0.0000000E+000	0.0000000E+000	0.0000000E+000	-17.8645	0.0000000E+000	0.0000000E+000	0.0000000E+000	-72.1355	0.0000000E+000	0.0000000E+000	0.0000000E+000	72.1355	0.322306	17.8645
0.0133776	777.095	4388.33	4456.6	-79.958	09/05/2018 14:22:16.7383	-0.00128544	6.23198e-06	2711.09	2628.66	1	14	0.021609	4.84875e-06	3.91261e-05	0.000220949	0.000224386	79.958	2.62866e+06	465489	2.66956e+06	-10.042	0.0000000E+000	0.0000000E+000	0.0000000E+000	10.042	0.0000000E+000	0.0000000E+000	0.0000000E+000	-10.042	0.0000000E+000	0.0000000E+000	0.0000000E+000	-79.958	0.0000000E+000	0.0000000E+000	0.0000000E+000	79.958	0.177082	10.042
0.0100058	871.456	5797	5862.14	-81.4508	09/05/2018 14:35:36.9003	-0.00127839	4.42499e-06	2743.89	2683.25	1	14	0.0216111	3.68655e-06	2.5359e-05	0.000168691	0.000170586	81.4508	2.68325e+06	403369	2.7134e+06	-8.54918	0.0000000E+000	0.0000000E+000	0.0000000E+000	8.54918	0.0000000E+000	0.0000000E+000	0.0000000E+000	-8.54918	0.0000000E+000	0.0000000E+000	0.0000000E+000	-81.4508	0.0000000E+000	0.0000000E+000	0.0000000E+000	81.4508	0.150329	8.54918