File: exp data/EIS mpt files/single type poluted/RM_stacked second run D12_2_C04.mpt
EC-Lab ASCII FILE
Nb header lines : 66

Potentio Electrochemical Impedance Spectroscopy

Run on channel : 4 (SN 13229)
User :
CE vs. WE compliance from -10 V to 10 V
Electrode connection : standard
Potential control : Ewe
Ewe ctrl range : min = -1.00 V, max = 1.00 V
Safety Limits :
	Do not start on E overload
Acquisition started on : 09/05/2018 15:23:22.000
Loaded Setting File : NONE
Saved on :
	File : RM_stacked second run D12_2_C04.mpr
	Directory : D:\Robert\Stacked cells\Second run 3% and 12% PVDF electrodes 12%compressed\
	Host : 10.5.5.6
Device : VMP3 (SN 0628)
Address : 10.5.5.5
EC-Lab for windows v11.17 (software)
Internet server v11.16 (firmware)
Command interpretor v11.16 (firmware)
Electrode material :
Initial state :
Electrolyte :
Comments :
Electrode surface area : 0.001 cm²
Characteristic mass : 0.001 g
Equivalent Weight : 0.000 g/eq.
Density : 0.000 g/cm3
Volume (V) : 0.000 m³
Text export
   Mode : Standard
   Time format : Elapsed
Cycle Definition : Charge/Discharge alternance
Mode                Single sine
E (V)               0.0000
vs.                 Eoc
tE (h:m:s)          0:00:3.0000
record              1
dI                  0.000
unit dI             mA
dt (s)              60.000
fi                  200.000
unit fi             kHz
ff                  10.000
unit ff             mHz
Nd                  8
Points              per decade
spacing             Logarithmic
Va (mV)             20.0
pw                  3.00
Na                  5
corr                0
E range min (V)     -1.000
E range max (V)     1.000
I Range             Auto
Bandwidth           5
nc cycles           0
goto Ns'            0
nr cycles           0
inc. cycle          0

freq/Hz	Re(Z)/Ohm	-Im(Z)/Ohm	|Z|/Ohm	Phase(Z)/deg	time/s	<Ewe>/V	<I>/mA	Cs/µF	Cp/µF	cycle number	I Range	|Ewe|/V	|I|/A	Re(Y)/Ohm-1	Im(Y)/Ohm-1	|Y|/Ohm-1	Phase(Y)/deg	Re(C)/nF	Im(C)/nF	|C|/nF	Phase(C)/deg	Re(M)	Im(M)	|M|	Phase(M)/deg	Re(Permittivity)	Im(Permittivity)	|Permittivity|	Phase(Permittivity)/deg	Re(Resistivity)/Ohm.cm	Im(Resistivity)/Ohm.cm	|Resistivity|/Ohm.cm	Phase(Resistivity)/deg	Re(Conductivity)/mS/cm	Im(Conductivity)/mS/cm	|Conductivity|/mS/cm	Phase(Conductivity)/deg	Tan(Delta)	Loss Angle(Delta)/deg
200019	138.441	0.931801	138.445	-0.385632	09/05/2018 15:23:27.3311	0.00246872	-0.002887	0.853934	3.86829e-05	1	11	0.0185558	0.00013403	0.00722295	4.86152e-05	0.00722311	0.385632	0.0386833	5.74728	5.74741	-89.6144	0.0000000E+000	0.0000000E+000	0.0000000E+000	89.6144	0.0000000E+000	0.0000000E+000	0.0000000E+000	-89.6144	0.0000000E+000	0.0000000E+000	0.0000000E+000	-0.385632	0.0000000E+000	0.0000000E+000	0.0000000E+000	0.385632	148.574	89.6144
83828.1	138.275	1.84858	138.287	-0.765936	09/05/2018 15:23:30.5251	0.00314317	0.00177691	1.02705	0.00018353	1	11	0.0207031	0.000149711	0.00723069	9.66665e-05	0.00723134	0.765936	0.18353	13.7281	13.7293	-89.2341	0.0000000E+000	0.0000000E+000	0.0000000E+000	89.2341	0.0000000E+000	0.0000000E+000	0.0000000E+000	-89.2341	0.0000000E+000	0.0000000E+000	0.0000000E+000	-0.765936	0.0000000E+000	0.0000000E+000	0.0000000E+000	0.765936	74.8004	89.2341
35136.7	139.305	2.25012	139.323	-0.925389	09/05/2018 15:23:33.7191	0.00315172	0.00170697	2.01305	0.000525073	1	11	0.0203733	0.000146231	0.00717664	0.000115921	0.00717758	0.925389	0.525075	32.5072	32.5115	-89.0746	0.0000000E+000	0.0000000E+000	0.0000000E+000	89.0746	0.0000000E+000	0.0000000E+000	0.0000000E+000	-89.0746	0.0000000E+000	0.0000000E+000	0.0000000E+000	-0.925389	0.0000000E+000	0.0000000E+000	0.0000000E+000	0.925389	61.91	89.0746
14726.6	140.492	2.51442	140.515	-1.02532	09/05/2018 15:23:36.7881	0.00314263	0.00165979	4.29814	0.0013763	1	11	0.0212723	0.000151388	0.00711554	0.000127348	0.00711668	1.02532	1.37629	76.9001	76.9124	-88.9747	0.0000000E+000	0.0000000E+000	0.0000000E+000	88.9747	0.0000000E+000	0.0000000E+000	0.0000000E+000	-88.9747	0.0000000E+000	0.0000000E+000	0.0000000E+000	-1.02532	0.0000000E+000	0.0000000E+000	0.0000000E+000	1.02532	55.8747	88.9747
6195.49	141.621	3.11487	141.655	-1.25998	09/05/2018 15:23:40.3768	0.00316832	0.00172842	8.24716	0.00398766	1	11	0.0205023	0.000144734	0.00705768	0.000155229	0.00705939	1.25998	3.98765	181.304	181.347	-88.74	0.0000000E+000	0.0000000E+000	0.0000000E+000	88.74	0.0000000E+000	0.0000000E+000	0.0000000E+000	-88.74	0.0000000E+000	0.0000000E+000	0.0000000E+000	-1.25998	0.0000000E+000	0.0000000E+000	0.0000000E+000	1.25998	45.4661	88.74
2585.83	143.268	4.53099	143.339	-1.81143	09/05/2018 15:23:45.4407	0.00317167	0.00171481	13.584	0.0135732	1	11	0.0207347	0.000144655	0.00697297	0.000220527	0.00697646	1.81143	13.5732	429.179	429.394	-88.1886	0.0000000E+000	0.0000000E+000	0.0000000E+000	88.1886	0.0000000E+000	0.0000000E+000	0.0000000E+000	-88.1886	0.0000000E+000	0.0000000E+000	0.0000000E+000	-1.81143	0.0000000E+000	0.0000000E+000	0.0000000E+000	1.81143	31.6195	88.1886
1083.96	145.62	6.83998	145.78	-2.68929	09/05/2018 15:23:50.5069	0.0031676	0.00173345	21.4661	0.0472567	1	11	0.020769	0.000142467	0.00685208	0.000321852	0.00685963	2.68929	47.2566	1006.07	1007.18	-87.3107	0.0000000E+000	0.0000000E+000	0.0000000E+000	87.3107	0.0000000E+000	0.0000000E+000	0.0000000E+000	-87.3107	0.0000000E+000	0.0000000E+000	0.0000000E+000	-2.68929	0.0000000E+000	0.0000000E+000	0.0000000E+000	2.68929	21.2895	87.3107
454.564	149.196	10.5214	149.566	-4.03388	09/05/2018 15:23:55.5600	0.00317068	0.00170679	33.2775	0.164677	1	11	0.020772	0.000138882	0.00666944	0.000470336	0.00668601	4.03388	164.677	2335.15	2340.95	-85.9661	0.0000000E+000	0.0000000E+000	0.0000000E+000	85.9661	0.0000000E+000	0.0000000E+000	0.0000000E+000	-85.9661	0.0000000E+000	0.0000000E+000	0.0000000E+000	-4.03388	0.0000000E+000	0.0000000E+000	0.0000000E+000	4.03388	14.1802	85.9661
190.549	154.674	16.6059	155.563	-6.12781	09/05/2018 15:24:00.6192	0.00316444	0.00173476	50.2982	0.573141	1	11	0.0207721	0.000133528	0.00639152	0.000686195	0.00642825	6.12781	573.14	5338.49	5369.17	-83.8722	0.0000000E+000	0.0000000E+000	0.0000000E+000	83.8722	0.0000000E+000	0.0000000E+000	0.0000000E+000	-83.8722	0.0000000E+000	0.0000000E+000	0.0000000E+000	-6.12781	0.0000000E+000	0.0000000E+000	0.0000000E+000	6.12781	9.31444	83.8722
79.8212	163.244	26.6676	165.408	-9.27794	09/05/2018 15:24:05.6862	0.00316427	0.00169075	74.7682	1.94346	1	11	0.0207687	0.00012556	0.00596658	0.000974707	0.00604567	9.27794	1943.46	11896.7	12054.4	-80.7221	0.0000000E+000	0.0000000E+000	0.0000000E+000	80.7221	0.0000000E+000	0.0000000E+000	0.0000000E+000	-80.7221	0.0000000E+000	0.0000000E+000	0.0000000E+000	-9.27794	0.0000000E+000	0.0000000E+000	0.0000000E+000	9.27794	6.12141	80.7221
33.4276	177.309	43.1707	182.489	-13.684	09/05/2018 15:24:11.0942	0.00316419	9.99702e-05	110.287	6.17208	1	12	0.020783	0.000113886	0.00532424	0.00129633	0.00547978	13.684	6172.08	25349.7	26090.3	-76.316	0.0000000E+000	0.0000000E+000	0.0000000E+000	76.316	0.0000000E+000	0.0000000E+000	0.0000000E+000	-76.316	0.0000000E+000	0.0000000E+000	0.0000000E+000	-13.684	0.0000000E+000	0.0000000E+000	0.0000000E+000	13.684	4.10716	76.316
14.0176	200.39	69.5547	212.118	-19.1417	09/05/2018 15:24:16.3728	0.00316108	0.00012859	163.237	17.5516	1	12	0.0207744	9.79377e-05	0.0044537	0.00154586	0.00471435	19.1417	17551.6	50566.9	53526.3	-70.8583	0.0000000E+000	0.0000000E+000	0.0000000E+000	70.8583	0.0000000E+000	0.0000000E+000	0.0000000E+000	-70.8583	0.0000000E+000	0.0000000E+000	0.0000000E+000	-19.1417	0.0000000E+000	0.0000000E+000	0.0000000E+000	19.1417	2.88105	70.8583
5.88291	238.719	110.805	263.181	-24.8991	09/05/2018 15:24:21.5557	0.00315787	7.36542e-05	244.157	43.279	1	12	0.0207669	7.89073e-05	0.00344649	0.00159974	0.00379967	24.8991	43279	93240.7	102795	-65.1009	0.0000000E+000	0.0000000E+000	0.0000000E+000	65.1009	0.0000000E+000	0.0000000E+000	0.0000000E+000	-65.1009	0.0000000E+000	0.0000000E+000	0.0000000E+000	-24.8991	0.0000000E+000	0.0000000E+000	0.0000000E+000	24.8991	2.15441	65.1009
2.46607	302.483	171.233	347.588	-29.5138	09/05/2018 15:24:29.2944	0.00316183	0.000101534	376.901	91.4693	1	12	0.020768	5.97488e-05	0.00250365	0.00141729	0.00287697	29.5138	91469.2	161580	185674	-60.4862	0.0000000E+000	0.0000000E+000	0.0000000E+000	60.4862	0.0000000E+000	0.0000000E+000	0.0000000E+000	-60.4862	0.0000000E+000	0.0000000E+000	0.0000000E+000	-29.5138	0.0000000E+000	0.0000000E+000	0.0000000E+000	29.5138	1.7665	60.4862
1.0334	389.647	249.232	462.538	-32.6044	09/05/2018 15:24:48.1609	0.00317158	2.20919e-05	617.943	179.416	1	13	0.0207712	4.4907e-05	0.00182128	0.00116496	0.00216199	32.6044	179416	280497	332970	-57.3956	0.0000000E+000	0.0000000E+000	0.0000000E+000	57.3956	0.0000000E+000	0.0000000E+000	0.0000000E+000	-57.3956	0.0000000E+000	0.0000000E+000	0.0000000E+000	-32.6044	0.0000000E+000	0.0000000E+000	0.0000000E+000	32.6044	1.56339	57.3956
0.433065	459.795	398.528	608.47	-40.9172	09/05/2018 15:25:31.0340	0.0031684	8.06238e-05	922.163	395.592	1	13	0.0207676	3.41308e-05	0.0012419	0.00107642	0.00164347	40.9172	395592	456407	603987	-49.0828	0.0000000E+000	0.0000000E+000	0.0000000E+000	49.0828	0.0000000E+000	0.0000000E+000	0.0000000E+000	-49.0828	0.0000000E+000	0.0000000E+000	0.0000000E+000	-40.9172	0.0000000E+000	0.0000000E+000	0.0000000E+000	40.9172	1.15373	49.0828
0.181534	509.735	795	944.381	-57.333	09/05/2018 15:27:13.0727	0.00317382	2.02851e-05	1102.8	781.511	1	13	0.0207659	2.19889e-05	0.000571545	0.000891401	0.00105889	57.333	781511	501086	928357	-32.667	0.0000000E+000	0.0000000E+000	0.0000000E+000	32.667	0.0000000E+000	0.0000000E+000	0.0000000E+000	-32.667	0.0000000E+000	0.0000000E+000	0.0000000E+000	-57.333	0.0000000E+000	0.0000000E+000	0.0000000E+000	57.333	0.641176	32.667
0.0761037	580.279	1764.72	1857.67	-71.798	09/05/2018 15:31:16.0812	0.00317577	2.15004e-05	1185.06	1069.43	1	13	0.0207656	1.11783e-05	0.00016815	0.000511371	0.000538308	71.798	1.06943e+06	351651	1.12576e+06	-18.202	0.0000000E+000	0.0000000E+000	0.0000000E+000	18.202	0.0000000E+000	0.0000000E+000	0.0000000E+000	-18.202	0.0000000E+000	0.0000000E+000	0.0000000E+000	-71.798	0.0000000E+000	0.0000000E+000	0.0000000E+000	71.798	0.328823	18.202
0.0319138	729.795	4033.41	4098.9	-79.744	09/05/2018 15:40:55.3794	0.00316952	1.79768e-05	1236.43	1197.23	1	13	0.0207633	5.06556e-06	4.34375e-05	0.00024007	0.000243968	79.744	1.19723e+06	216624	1.21667e+06	-10.256	0.0000000E+000	0.0000000E+000	0.0000000E+000	10.256	0.0000000E+000	0.0000000E+000	0.0000000E+000	-10.256	0.0000000E+000	0.0000000E+000	0.0000000E+000	-79.744	0.0000000E+000	0.0000000E+000	0.0000000E+000	79.744	0.180937	10.256
0.0133776	1095.54	9288.46	9352.84	-83.2733	09/05/2018 16:04:39.9850	0.00317281	2.40779e-06	1280.85	1263.28	1	14	0.0207643	2.22011e-06	1.25239e-05	0.000106183	0.000106919	83.2733	1.26328e+06	148999	1.27204e+06	-6.72672	0.0000000E+000	0.0000000E+000	0.0000000E+000	6.72672	0.0000000E+000	0.0000000E+000	0.0000000E+000	-6.72672	0.0000000E+000	0.0000000E+000	0.0000000E+000	-83.2733	0.0000000E+000	0.0000000E+000	0.0000000E+000	83.2733	0.117946	6.72672
0.0100058	1317.07	12270.2	12340.7	-83.8734	09/05/2018 16:18:00.1511	0.00317511	2.59847e-06	1296.34	1281.57	1	14	0.0207645	1.6826e-06	8.64831e-06	8.05699e-05	8.10328e-05	83.8734	1.28157e+06	137563	1.28893e+06	-6.12663	0.0000000E+000	0.0000000E+000	0.0000000E+000	6.12663	0.0000000E+000	0.0000000E+000	0.0000000E+000	-6.12663	0.0000000E+000	0.0000000E+000	0.0000000E+000	-83.8734	0.0000000E+000	0.0000000E+000	0.0000000E+000	83.8734	0.107339	6.12662