File: exp data/EIS mpt files/single type poluted/RM_stacked second run D3_2_C08.mpt
EC-Lab ASCII FILE
Nb header lines : 70

Potentio Electrochemical Impedance Spectroscopy

Run on channel : 8 (SN 13213)
User :
CE vs. WE compliance from -10 V to 10 V
Electrode connection : standard
Potential control : Ewe
Ewe ctrl range : min = -1.00 V, max = 1.00 V
Safety Limits :
	Do not start on E overload
Acquisition started on : 09/05/2018 13:41:35.000
Loaded Setting File : NONE
Saved on :
	File : RM_stacked second run D3_2_C08.mpr
	Directory : D:\Robert\Stacked cells\Second run 3% and 12% PVDF electrodes 12%compressed\
	Host : 10.5.5.6
Device : VMP3 (SN 0628)
Address : 10.5.5.5
EC-Lab for windows v11.17 (software)
Internet server v11.16 (firmware)
Command interpretor v11.16 (firmware)
Electrode material :
Initial state :
Electrolyte :
Comments :
Electrode surface area : 0.001 cm²
Characteristic mass : 0.001 g
Equivalent Weight : 0.000 g/eq.
Density : 0.000 g/cm3
Volume (V) : 0.000 m³
Text export
   Mode : Standard
   Time format : Elapsed
Cycle Definition : Charge/Discharge alternance
Mode                Single sine
E (V)               0.0000
vs.                 Eoc
tE (h:m:s)          0:00:3.0000
record              1
dI                  0.000
unit dI             mA
dt (s)              60.000
fi                  200.000
unit fi             kHz
ff                  10.000
unit ff             mHz
Nd                  8
Points              per decade
spacing             Logarithmic
Va (mV)             20.0
pw                  3.00
Na                  5
corr                0
E range min (V)     -1.000
E range max (V)     1.000
I Range             Auto
Bandwidth           5
nc cycles           0
goto Ns'            0
nr cycles           0
inc. cycle          0

Modify on : 09/05/2018 14:32
No text export
ff                  8.000

freq/Hz	Re(Z)/Ohm	-Im(Z)/Ohm	|Z|/Ohm	Phase(Z)/deg	time/s	<Ewe>/V	<I>/mA	Cs/µF	Cp/µF	cycle number	I Range	|Ewe|/V	|I|/A	Re(Y)/Ohm-1	Im(Y)/Ohm-1	|Y|/Ohm-1	Phase(Y)/deg	Re(C)/nF	Im(C)/nF	|C|/nF	Phase(C)/deg	Re(M)	Im(M)	|M|	Phase(M)/deg	Re(Permittivity)	Im(Permittivity)	|Permittivity|	Phase(Permittivity)/deg	Re(Resistivity)/Ohm.cm	Im(Resistivity)/Ohm.cm	|Resistivity|/Ohm.cm	Phase(Resistivity)/deg	Re(Conductivity)/mS/cm	Im(Conductivity)/mS/cm	|Conductivity|/mS/cm	Phase(Conductivity)/deg	Tan(Delta)	Loss Angle(Delta)/deg
200019	149.19	0.458266	149.191	-0.175995	09/05/2018 13:41:40.3311	-0.00583581	0.00214332	1.73632	1.63826e-05	1	11	0.0181582	0.000121711	0.0067028	2.0589e-05	0.00670284	0.175995	0.0163826	5.3334	5.33343	-89.824	0.0000000E+000	0.0000000E+000	0.0000000E+000	89.824	0.0000000E+000	0.0000000E+000	0.0000000E+000	-89.824	0.0000000E+000	0.0000000E+000	0.0000000E+000	-0.175995	0.0000000E+000	0.0000000E+000	0.0000000E+000	0.175995	325.553	89.824
83828.1	148.571	1.53446	148.579	-0.591738	09/05/2018 13:41:43.5251	-0.0057176	0.00273102	1.2373	0.000131969	1	11	0.0206647	0.000139082	0.00673007	6.95091e-05	0.00673043	0.591738	0.131969	12.7776	12.7783	-89.4083	0.0000000E+000	0.0000000E+000	0.0000000E+000	89.4083	0.0000000E+000	0.0000000E+000	0.0000000E+000	-89.4083	0.0000000E+000	0.0000000E+000	0.0000000E+000	-0.591738	0.0000000E+000	0.0000000E+000	0.0000000E+000	0.591738	96.8228	89.4083
35136.7	149.423	2.32787	149.441	-0.892542	09/05/2018 13:41:46.7191	-0.00570285	0.00281568	1.94581	0.000472147	1	11	0.0203984	0.000136498	0.00669078	0.000104236	0.0066916	0.892542	0.472146	30.3065	30.3102	-89.1075	0.0000000E+000	0.0000000E+000	0.0000000E+000	89.1075	0.0000000E+000	0.0000000E+000	0.0000000E+000	-89.1075	0.0000000E+000	0.0000000E+000	0.0000000E+000	-0.892542	0.0000000E+000	0.0000000E+000	0.0000000E+000	0.892542	64.1888	89.1075
14726.6	150.462	3.31656	150.499	-1.26274	09/05/2018 13:41:49.7881	-0.00570421	0.00283395	3.2586	0.00158249	1	11	0.0202564	0.000134595	0.00664295	0.000146427	0.00664457	1.26274	1.58248	71.7926	71.8101	-88.7373	0.0000000E+000	0.0000000E+000	0.0000000E+000	88.7373	0.0000000E+000	0.0000000E+000	0.0000000E+000	-88.7373	0.0000000E+000	0.0000000E+000	0.0000000E+000	-1.26274	0.0000000E+000	0.0000000E+000	0.0000000E+000	1.26274	45.367	88.7373
6195.49	152.395	5.13169	152.482	-1.92863	09/05/2018 13:41:53.2339	-0.00569082	0.00278566	5.00592	0.00566983	1	11	0.0214738	0.000140829	0.00655445	0.000220712	0.00655817	1.92863	5.66984	168.376	168.472	-88.0714	0.0000000E+000	0.0000000E+000	0.0000000E+000	88.0714	0.0000000E+000	0.0000000E+000	0.0000000E+000	-88.0714	0.0000000E+000	0.0000000E+000	0.0000000E+000	-1.92863	0.0000000E+000	0.0000000E+000	0.0000000E+000	1.92863	29.6969	88.0714
2585.83	155.881	7.33174	156.053	-2.69288	09/05/2018 13:41:58.2947	-0.00569044	0.00279461	8.39486	0.0185303	1	11	0.0216922	0.000139005	0.00640099	0.000301065	0.00640806	2.69288	18.5303	393.974	394.41	-87.3071	0.0000000E+000	0.0000000E+000	0.0000000E+000	87.3071	0.0000000E+000	0.0000000E+000	0.0000000E+000	-87.3071	0.0000000E+000	0.0000000E+000	0.0000000E+000	-2.69288	0.0000000E+000	0.0000000E+000	0.0000000E+000	2.69288	21.2611	87.3071
1083.96	160.437	8.98701	160.688	-3.20612	09/05/2018 13:42:03.3579	-0.00568817	0.00277559	16.3377	0.0511039	1	11	0.0217231	0.000135188	0.00621349	0.000348054	0.00622323	3.20612	51.1039	912.31	913.74	-86.7939	0.0000000E+000	0.0000000E+000	0.0000000E+000	86.7939	0.0000000E+000	0.0000000E+000	0.0000000E+000	-86.7939	0.0000000E+000	0.0000000E+000	0.0000000E+000	-3.20612	0.0000000E+000	0.0000000E+000	0.0000000E+000	3.20612	17.8521	86.7939
454.564	165.172	11.1374	165.547	-3.85758	09/05/2018 13:42:08.4129	-0.00569194	0.00275694	31.4369	0.142288	1	11	0.0217217	0.000131212	0.00602689	0.00040639	0.00604058	3.85758	142.288	2110.18	2114.97	-86.1424	0.0000000E+000	0.0000000E+000	0.0000000E+000	86.1424	0.0000000E+000	0.0000000E+000	0.0000000E+000	-86.1424	0.0000000E+000	0.0000000E+000	0.0000000E+000	-3.85758	0.0000000E+000	0.0000000E+000	0.0000000E+000	3.85758	14.8303	86.1424
190.549	170.856	15.3559	171.544	-5.13573	09/05/2018 13:42:13.4712	-0.00569264	0.00275843	54.3926	0.435848	1	11	0.0217212	0.000126621	0.00580599	0.00052182	0.00582939	5.13573	435.848	4849.43	4868.97	-84.8643	0.0000000E+000	0.0000000E+000	0.0000000E+000	84.8643	0.0000000E+000	0.0000000E+000	0.0000000E+000	-84.8643	0.0000000E+000	0.0000000E+000	0.0000000E+000	-5.13573	0.0000000E+000	0.0000000E+000	0.0000000E+000	5.13573	11.1264	84.8643
79.8212	179.038	22.5534	180.453	-7.17972	09/05/2018 13:42:18.5382	-0.0056971	0.0027506	88.4076	1.38097	1	11	0.0217227	0.000120379	0.00549815	0.000692601	0.0055416	7.17972	1380.97	10962.7	11049.4	-82.8203	0.0000000E+000	0.0000000E+000	0.0000000E+000	82.8203	0.0000000E+000	0.0000000E+000	0.0000000E+000	-82.8203	0.0000000E+000	0.0000000E+000	0.0000000E+000	-7.17972	0.0000000E+000	0.0000000E+000	0.0000000E+000	7.17972	7.93841	82.8203
33.4276	191.37	34.0407	194.374	-10.0862	09/05/2018 13:42:23.9382	-0.00568752	0.000239337	139.868	4.28978	1	12	0.0217281	0.000111785	0.0050652	0.00090099	0.00514471	10.0862	4289.78	24116.4	24494.9	-79.9138	0.0000000E+000	0.0000000E+000	0.0000000E+000	79.9138	0.0000000E+000	0.0000000E+000	0.0000000E+000	-79.9138	0.0000000E+000	0.0000000E+000	0.0000000E+000	-10.0862	0.0000000E+000	0.0000000E+000	0.0000000E+000	10.0862	5.62182	79.9138
14.0176	210.217	51.4672	216.426	-13.7571	09/05/2018 13:42:29.2168	-0.0056907	0.00026796	220.604	12.4755	1	12	0.0217223	0.000100368	0.00448797	0.00109879	0.00462052	13.7571	12475.5	50956	52461	-76.2429	0.0000000E+000	0.0000000E+000	0.0000000E+000	76.2429	0.0000000E+000	0.0000000E+000	0.0000000E+000	-76.2429	0.0000000E+000	0.0000000E+000	0.0000000E+000	-13.7571	0.0000000E+000	0.0000000E+000	0.0000000E+000	13.7571	4.08448	76.2429
5.88291	238.823	77.5075	251.085	-17.9803	09/05/2018 13:42:34.3987	-0.00568737	0.000117186	349.048	33.2606	1	12	0.021719	8.65006e-05	0.00378821	0.00122942	0.00398272	17.9803	33260.6	102485	107748	-72.0197	0.0000000E+000	0.0000000E+000	0.0000000E+000	72.0197	0.0000000E+000	0.0000000E+000	0.0000000E+000	-72.0197	0.0000000E+000	0.0000000E+000	0.0000000E+000	-17.9803	0.0000000E+000	0.0000000E+000	0.0000000E+000	17.9803	3.08129	72.0197
2.46607	281.661	116.908	304.959	-22.5416	09/05/2018 13:42:42.1383	-0.00568443	0.000251236	552.043	81.1286	1	12	0.0217201	7.12229e-05	0.00302861	0.00125707	0.00327913	22.5416	81128.6	195460	211628	-67.4584	0.0000000E+000	0.0000000E+000	0.0000000E+000	67.4584	0.0000000E+000	0.0000000E+000	0.0000000E+000	-67.4584	0.0000000E+000	0.0000000E+000	0.0000000E+000	-22.5416	0.0000000E+000	0.0000000E+000	0.0000000E+000	22.5416	2.40926	67.4584
1.0334	345.867	176.444	388.274	-27.0285	09/05/2018 13:43:00.2359	-0.00568187	0.000255653	872.859	180.254	1	12	0.0217194	5.59384e-05	0.00229421	0.00117039	0.0025755	27.0285	180254	353334	396656	-62.9715	0.0000000E+000	0.0000000E+000	0.0000000E+000	62.9715	0.0000000E+000	0.0000000E+000	0.0000000E+000	-62.9715	0.0000000E+000	0.0000000E+000	0.0000000E+000	-27.0285	0.0000000E+000	0.0000000E+000	0.0000000E+000	27.0285	1.9602	62.9715
0.433065	442.214	267.493	516.822	-31.1696	09/05/2018 13:43:44.8809	-0.0056732	7.62262e-05	1373.9	368.041	1	13	0.0217215	4.2029e-05	0.00165558	0.00100145	0.0019349	31.1696	368041	608438	711091	-58.8304	0.0000000E+000	0.0000000E+000	0.0000000E+000	58.8304	0.0000000E+000	0.0000000E+000	0.0000000E+000	-58.8304	0.0000000E+000	0.0000000E+000	0.0000000E+000	-31.1696	0.0000000E+000	0.0000000E+000	0.0000000E+000	31.1696	1.65318	58.8304
0.181534	589.45	407.633	716.67	-34.6657	09/05/2018 13:45:26.9185	-0.00568032	4.72982e-05	2150.76	695.814	1	13	0.0217178	3.03037e-05	0.00114765	0.000793653	0.00139534	34.6657	695813	1.00617e+06	1.22333e+06	-55.3343	0.0000000E+000	0.0000000E+000	0.0000000E+000	55.3343	0.0000000E+000	0.0000000E+000	0.0000000E+000	-55.3343	0.0000000E+000	0.0000000E+000	0.0000000E+000	-34.6657	0.0000000E+000	0.0000000E+000	0.0000000E+000	34.6657	1.44603	55.3343
0.0761037	782.163	599.8	985.667	-37.4827	09/05/2018 13:49:29.9248	-0.005675	3.93426e-05	3486.65	1291.1	1	13	0.0217181	2.20339e-05	0.000805076	0.000617371	0.00101454	37.4827	1.2911e+06	1.68365e+06	2.1217e+06	-52.5173	0.0000000E+000	0.0000000E+000	0.0000000E+000	52.5173	0.0000000E+000	0.0000000E+000	0.0000000E+000	-52.5173	0.0000000E+000	0.0000000E+000	0.0000000E+000	-37.4827	0.0000000E+000	0.0000000E+000	0.0000000E+000	37.4827	1.30404	52.5173
0.0319138	918.431	1003.25	1360.15	-47.5272	09/05/2018 13:59:09.2193	-0.00568421	3.40196e-05	4970.89	2704.41	1	13	0.0217163	1.59661e-05	0.000496444	0.00054229	0.000735211	47.5272	2.70441e+06	2.47578e+06	3.66652e+06	-42.4728	0.0000000E+000	0.0000000E+000	0.0000000E+000	42.4728	0.0000000E+000	0.0000000E+000	0.0000000E+000	-42.4728	0.0000000E+000	0.0000000E+000	0.0000000E+000	-47.5272	0.0000000E+000	0.0000000E+000	0.0000000E+000	47.5272	0.915459	42.4728
0.0133776	1003.63	2083.84	2312.93	-64.2833	09/05/2018 14:22:11.8411	-0.0056795	3.67035e-05	5709.25	4634.27	1	13	0.0217173	9.3895e-06	0.000187607	0.000389528	0.000432352	64.2833	4.63427e+06	2.23198e+06	5.14376e+06	-25.7167	0.0000000E+000	0.0000000E+000	0.0000000E+000	25.7167	0.0000000E+000	0.0000000E+000	0.0000000E+000	-25.7167	0.0000000E+000	0.0000000E+000	0.0000000E+000	-64.2833	0.0000000E+000	0.0000000E+000	0.0000000E+000	64.2833	0.481626	25.7167
0.0080046	1062.37	3370.71	3534.17	-72.5063	09/05/2018 14:52:05.8298	-0.00566601	3.65311e-05	5898.73	5365.71	1	13	0.0217167	6.14477e-06	8.50557e-05	0.000269865	0.000282952	72.5063	5.36571e+06	1.69116e+06	5.62591e+06	-17.4937	0.0000000E+000	0.0000000E+000	0.0000000E+000	17.4937	0.0000000E+000	0.0000000E+000	0.0000000E+000	-17.4937	0.0000000E+000	0.0000000E+000	0.0000000E+000	-72.5063	0.0000000E+000	0.0000000E+000	0.0000000E+000	72.5063	0.315178	17.4937