File: exp data/EIS mpt files/two combined/RM_stacked second run DS_12+3_1_C07.mpt
EC-Lab ASCII FILE
Nb header lines : 66

Potentio Electrochemical Impedance Spectroscopy

Run on channel : 7 (SN 13829)
User :
CE vs. WE compliance from -10 V to 10 V
Electrode connection : standard
Potential control : Ewe
Ewe ctrl range : min = -1.00 V, max = 1.00 V
Safety Limits :
	Do not start on E overload
Acquisition started on : 09/05/2018 15:23:59.000
Loaded Setting File : NONE
Saved on :
	File : RM_stacked second run DS_12+3_1_C07.mpr
	Directory : D:\Robert\Stacked cells\Second run 3% and 12% PVDF electrodes 12%compressed\
	Host : 10.5.5.6
Device : VMP3 (SN 0628)
Address : 10.5.5.5
EC-Lab for windows v11.17 (software)
Internet server v11.16 (firmware)
Command interpretor v11.16 (firmware)
Electrode material :
Initial state :
Electrolyte :
Comments :
Electrode surface area : 0.001 cm²
Characteristic mass : 0.001 g
Equivalent Weight : 0.000 g/eq.
Density : 0.000 g/cm3
Volume (V) : 0.000 m³
Text export
   Mode : Standard
   Time format : Elapsed
Cycle Definition : Charge/Discharge alternance
Mode                Single sine
E (V)               0.0000
vs.                 Eoc
tE (h:m:s)          0:00:3.0000
record              1
dI                  0.000
unit dI             mA
dt (s)              60.000
fi                  200.000
unit fi             kHz
ff                  8.000
unit ff             mHz
Nd                  8
Points              per decade
spacing             Logarithmic
Va (mV)             20.0
pw                  3.00
Na                  5
corr                0
E range min (V)     -1.000
E range max (V)     1.000
I Range             Auto
Bandwidth           5
nc cycles           0
goto Ns'            0
nr cycles           0
inc. cycle          0

freq/Hz	Re(Z)/Ohm	-Im(Z)/Ohm	|Z|/Ohm	Phase(Z)/deg	time/s	<Ewe>/V	<I>/mA	Cs/µF	Cp/µF	cycle number	I Range	|Ewe|/V	|I|/A	Re(Y)/Ohm-1	Im(Y)/Ohm-1	|Y|/Ohm-1	Phase(Y)/deg	Re(C)/nF	Im(C)/nF	|C|/nF	Phase(C)/deg	Re(M)	Im(M)	|M|	Phase(M)/deg	Re(Permittivity)	Im(Permittivity)	|Permittivity|	Phase(Permittivity)/deg	Re(Resistivity)/Ohm.cm	Im(Resistivity)/Ohm.cm	|Resistivity|/Ohm.cm	Phase(Resistivity)/deg	Re(Conductivity)/mS/cm	Im(Conductivity)/mS/cm	|Conductivity|/mS/cm	Phase(Conductivity)/deg	Tan(Delta)	Loss Angle(Delta)/deg
200019	157.562	2.37999	157.58	-0.865392	09/05/2018 15:24:04.3311	-0.0237588	0.00448962	0.334328	7.62641e-05	1	11	0.0179661	0.000114012	0.00634526	9.58456e-05	0.00634598	0.865392	0.0762644	5.0489	5.04948	-89.1346	0.0000000E+000	0.0000000E+000	0.0000000E+000	89.1346	0.0000000E+000	0.0000000E+000	0.0000000E+000	-89.1346	0.0000000E+000	0.0000000E+000	0.0000000E+000	-0.865392	0.0000000E+000	0.0000000E+000	0.0000000E+000	0.865392	66.2029	89.1346
84111.3	157.067	2.8705	157.093	-1.047	09/05/2018 15:24:07.5241	-0.024087	0.00244052	0.659186	0.000220094	1	11	0.0207024	0.000131784	0.00636458	0.000116317	0.00636564	1.047	0.220093	12.043	12.045	-88.953	0.0000000E+000	0.0000000E+000	0.0000000E+000	88.953	0.0000000E+000	0.0000000E+000	0.0000000E+000	-88.953	0.0000000E+000	0.0000000E+000	0.0000000E+000	-1.047	0.0000000E+000	0.0000000E+000	0.0000000E+000	1.047	54.7177	88.953
35371.1	158.663	3.49522	158.701	-1.26198	09/05/2018 15:24:10.7191	-0.0241009	0.00240901	1.28735	0.000624433	1	11	0.0203693	0.00012835	0.00629962	0.000138776	0.00630115	1.26198	0.624432	28.3456	28.3525	-88.738	0.0000000E+000	0.0000000E+000	0.0000000E+000	88.738	0.0000000E+000	0.0000000E+000	0.0000000E+000	-88.738	0.0000000E+000	0.0000000E+000	0.0000000E+000	-1.26198	0.0000000E+000	0.0000000E+000	0.0000000E+000	1.26198	45.3942	88.738
14873	160.57	3.4982	160.608	-1.24806	09/05/2018 15:24:13.7861	-0.0240798	0.00249366	3.05897	0.00145121	1	11	0.0202688	0.0001262	0.00622485	0.000135616	0.00622633	1.24806	1.45121	66.6115	66.6273	-88.7519	0.0000000E+000	0.0000000E+000	0.0000000E+000	88.7519	0.0000000E+000	0.0000000E+000	0.0000000E+000	-88.7519	0.0000000E+000	0.0000000E+000	0.0000000E+000	-1.24806	0.0000000E+000	0.0000000E+000	0.0000000E+000	1.24806	45.9007	88.7519
6295.45	162.12	3.70825	162.162	-1.31033	09/05/2018 15:24:17.2035	-0.0240893	0.00229377	6.81749	0.00356503	1	11	0.0213745	0.000131809	0.00616505	0.000141016	0.00616666	1.31033	3.56502	155.858	155.899	-88.6897	0.0000000E+000	0.0000000E+000	0.0000000E+000	88.6897	0.0000000E+000	0.0000000E+000	0.0000000E+000	-88.6897	0.0000000E+000	0.0000000E+000	0.0000000E+000	-1.31033	0.0000000E+000	0.0000000E+000	0.0000000E+000	1.31033	43.7187	88.6897
2630.84	163.947	4.65033	164.013	-1.62475	09/05/2018 15:24:22.2687	-0.0240801	0.00235363	13.0089	0.0104581	1	11	0.0215837	0.000131597	0.00609464	0.000172874	0.00609709	1.62475	10.4581	368.7	368.848	-88.3753	0.0000000E+000	0.0000000E+000	0.0000000E+000	88.3753	0.0000000E+000	0.0000000E+000	0.0000000E+000	-88.3753	0.0000000E+000	0.0000000E+000	0.0000000E+000	-1.62475	0.0000000E+000	0.0000000E+000	0.0000000E+000	1.62475	35.2549	88.3753
1106.77	166.358	6.49864	166.484	-2.23708	09/05/2018 15:24:27.3264	-0.0240904	0.00226543	22.1279	0.0337161	1	11	0.0216175	0.000129847	0.00600199	0.000234464	0.00600657	2.23708	33.7162	863.093	863.752	-87.7629	0.0000000E+000	0.0000000E+000	0.0000000E+000	87.7629	0.0000000E+000	0.0000000E+000	0.0000000E+000	-87.7629	0.0000000E+000	0.0000000E+000	0.0000000E+000	-2.23708	0.0000000E+000	0.0000000E+000	0.0000000E+000	2.23708	25.5988	87.7629
465.149	169.814	9.53286	170.082	-3.21304	09/05/2018 15:24:32.3877	-0.0240877	0.00223895	35.8926	0.112755	1	11	0.0216243	0.000127141	0.00587028	0.00032954	0.00587952	3.21304	112.755	2008.57	2011.73	-86.787	0.0000000E+000	0.0000000E+000	0.0000000E+000	86.787	0.0000000E+000	0.0000000E+000	0.0000000E+000	-86.787	0.0000000E+000	0.0000000E+000	0.0000000E+000	-3.21304	0.0000000E+000	0.0000000E+000	0.0000000E+000	3.21304	17.8136	86.787
195.815	174.919	14.3676	175.508	-4.69566	09/05/2018 15:24:37.4429	-0.0240922	0.00219289	56.5705	0.379111	1	11	0.0216255	0.000123216	0.00567862	0.000466435	0.00569774	4.69566	379.111	4615.49	4631.03	-85.3043	0.0000000E+000	0.0000000E+000	0.0000000E+000	85.3043	0.0000000E+000	0.0000000E+000	0.0000000E+000	-85.3043	0.0000000E+000	0.0000000E+000	0.0000000E+000	-4.69566	0.0000000E+000	0.0000000E+000	0.0000000E+000	4.69566	12.1745	85.3043
82.3451	182.592	22.0232	183.915	-6.87745	09/05/2018 15:24:42.4421	-0.0240897	0.00223205	87.7612	1.25842	1	11	0.0216176	0.000117541	0.00539816	0.000651093	0.00543728	6.87745	1258.42	10433.4	10509.1	-83.1226	0.0000000E+000	0.0000000E+000	0.0000000E+000	83.1226	0.0000000E+000	0.0000000E+000	0.0000000E+000	-83.1226	0.0000000E+000	0.0000000E+000	0.0000000E+000	-6.87745	0.0000000E+000	0.0000000E+000	0.0000000E+000	6.87745	8.29091	83.1226
34.6123	194.804	33.747	197.705	-9.82813	09/05/2018 15:24:47.6820	-0.0240866	0.000228699	136.256	3.96997	1	12	0.0216296	0.000109403	0.0049838	0.000863371	0.00505803	9.82813	3969.97	22916.6	23257.9	-80.1719	0.0000000E+000	0.0000000E+000	0.0000000E+000	80.1719	0.0000000E+000	0.0000000E+000	0.0000000E+000	-80.1719	0.0000000E+000	0.0000000E+000	0.0000000E+000	-9.82813	0.0000000E+000	0.0000000E+000	0.0000000E+000	9.82813	5.77249	80.1719
14.5756	213.496	51.3068	219.575	-13.5129	09/05/2018 15:24:52.7816	-0.0240907	0.000199002	212.824	11.62	1	12	0.0216256	9.84886e-05	0.00442819	0.00106417	0.00455426	13.5129	11620	48352.7	49729.4	-76.4871	0.0000000E+000	0.0000000E+000	0.0000000E+000	76.4871	0.0000000E+000	0.0000000E+000	0.0000000E+000	-76.4871	0.0000000E+000	0.0000000E+000	0.0000000E+000	-13.5129	0.0000000E+000	0.0000000E+000	0.0000000E+000	13.5129	4.16117	76.4871
6.12265	242.026	77.453	254.117	-17.7457	09/05/2018 15:24:57.7790	-0.0240924	0.000217823	335.616	31.1781	1	12	0.0216229	8.50903e-05	0.00374795	0.00119942	0.00393519	17.7457	31178.2	97425.9	102293	-72.2543	0.0000000E+000	0.0000000E+000	0.0000000E+000	72.2543	0.0000000E+000	0.0000000E+000	0.0000000E+000	-72.2543	0.0000000E+000	0.0000000E+000	0.0000000E+000	-17.7457	0.0000000E+000	0.0000000E+000	0.0000000E+000	17.7457	3.12481	72.2543
2.57329	284.645	116.847	307.695	-22.3181	09/05/2018 15:25:05.2074	-0.0240806	0.000184112	529.316	76.3322	1	12	0.0216221	7.02712e-05	0.00300652	0.00123417	0.00324997	22.3181	76332.2	185950	201007	-67.6819	0.0000000E+000	0.0000000E+000	0.0000000E+000	67.6819	0.0000000E+000	0.0000000E+000	0.0000000E+000	-67.6819	0.0000000E+000	0.0000000E+000	0.0000000E+000	-22.3181	0.0000000E+000	0.0000000E+000	0.0000000E+000	22.3181	2.43606	67.6819
1.08236	348.44	176.458	390.573	-26.8587	09/05/2018 15:25:22.5022	-0.0240751	0.000253736	833.308	170.092	1	12	0.0216197	5.53538e-05	0.00228414	0.00115674	0.00256034	26.8587	170092	335868	376482	-63.1413	0.0000000E+000	0.0000000E+000	0.0000000E+000	63.1413	0.0000000E+000	0.0000000E+000	0.0000000E+000	-63.1413	0.0000000E+000	0.0000000E+000	0.0000000E+000	-26.8587	0.0000000E+000	0.0000000E+000	0.0000000E+000	26.8587	1.97463	63.1413
0.455911	444.838	263.481	517.014	-30.6386	09/05/2018 15:26:04.9906	-0.0240786	-9.82934e-06	1324.92	344.1	1	13	0.0216265	4.18296e-05	0.00166417	0.000985702	0.00193418	30.6386	344100	580948	675208	-59.3614	0.0000000E+000	0.0000000E+000	0.0000000E+000	59.3614	0.0000000E+000	0.0000000E+000	0.0000000E+000	-59.3614	0.0000000E+000	0.0000000E+000	0.0000000E+000	-30.6386	0.0000000E+000	0.0000000E+000	0.0000000E+000	30.6386	1.68831	59.3614
0.191483	556.772	387.504	678.346	-34.8373	09/05/2018 15:27:41.7620	-0.0240749	1.00529e-05	2144.94	699.944	1	13	0.0216195	3.18709e-05	0.00120997	0.000842118	0.00147417	34.8373	699944	1.00569e+06	1.22529e+06	-55.1627	0.0000000E+000	0.0000000E+000	0.0000000E+000	55.1627	0.0000000E+000	0.0000000E+000	0.0000000E+000	-55.1627	0.0000000E+000	0.0000000E+000	0.0000000E+000	-34.8373	0.0000000E+000	0.0000000E+000	0.0000000E+000	34.8373	1.43682	55.1627
0.0805064	628.613	679.301	925.529	-47.2194	09/05/2018 15:31:31.6497	-0.0240674	2.04031e-05	2910.23	1567.73	1	13	0.0216192	2.33587e-05	0.000733844	0.000793017	0.00108046	47.2194	1.56773e+06	1.45075e+06	2.13599e+06	-42.7806	0.0000000E+000	0.0000000E+000	0.0000000E+000	42.7806	0.0000000E+000	0.0000000E+000	0.0000000E+000	-42.7806	0.0000000E+000	0.0000000E+000	0.0000000E+000	-47.2194	0.0000000E+000	0.0000000E+000	0.0000000E+000	47.2194	0.925382	42.7806
0.0339084	683.031	1441.39	1595.04	-64.6451	09/05/2018 15:40:37.7067	-0.0240795	2.5462e-05	3256.35	2659.22	1	13	0.0216143	1.3551e-05	0.000268473	0.000566554	0.000626945	64.6451	2.65922e+06	1.26012e+06	2.94268e+06	-25.3549	0.0000000E+000	0.0000000E+000	0.0000000E+000	25.3549	0.0000000E+000	0.0000000E+000	0.0000000E+000	-25.3549	0.0000000E+000	0.0000000E+000	0.0000000E+000	-64.6451	0.0000000E+000	0.0000000E+000	0.0000000E+000	64.6451	0.47387	25.3549
0.0142564	773.417	3280.34	3370.28	-76.7335	09/05/2018 16:02:15.5656	-0.0240678	2.54518e-05	3403.23	3224.01	1	13	0.0216177	6.41423e-06	6.80896e-05	0.000288793	0.000296711	76.7335	3.22401e+06	760137	3.31241e+06	-13.2665	0.0000000E+000	0.0000000E+000	0.0000000E+000	13.2665	0.0000000E+000	0.0000000E+000	0.0000000E+000	-13.2665	0.0000000E+000	0.0000000E+000	0.0000000E+000	-76.7335	0.0000000E+000	0.0000000E+000	0.0000000E+000	76.7335	0.235773	13.2665
0.0080046	890.496	5729.29	5798.08	-81.1653	09/05/2018 16:32:58.8446	-0.0240634	2.2981e-06	3470.4	3388.54	1	14	0.0216187	3.7286e-06	2.64889e-05	0.000170424	0.000172471	81.1653	3.38854e+06	526676	3.42922e+06	-8.83472	0.0000000E+000	0.0000000E+000	0.0000000E+000	8.83472	0.0000000E+000	0.0000000E+000	0.0000000E+000	-8.83472	0.0000000E+000	0.0000000E+000	0.0000000E+000	-81.1653	0.0000000E+000	0.0000000E+000	0.0000000E+000	81.1653	0.155429	8.83472