File: exp data/EIS mpt files/two combined/RM_stacked second run DS_3+12_1_C05.mpt
EC-Lab ASCII FILE
Nb header lines : 66

Potentio Electrochemical Impedance Spectroscopy

Run on channel : 5 (SN 13220)
User :
CE vs. WE compliance from -10 V to 10 V
Electrode connection : standard
Potential control : Ewe
Ewe ctrl range : min = -1.00 V, max = 1.00 V
Safety Limits :
	Do not start on E overload
Acquisition started on : 09/05/2018 15:23:39.000
Loaded Setting File : NONE
Saved on :
	File : RM_stacked second run DS_3+12_1_C05.mpr
	Directory : D:\Robert\Stacked cells\Second run 3% and 12% PVDF electrodes 12%compressed\
	Host : 10.5.5.6
Device : VMP3 (SN 0628)
Address : 10.5.5.5
EC-Lab for windows v11.17 (software)
Internet server v11.16 (firmware)
Command interpretor v11.16 (firmware)
Electrode material :
Initial state :
Electrolyte :
Comments :
Electrode surface area : 0.001 cm²
Characteristic mass : 0.001 g
Equivalent Weight : 0.000 g/eq.
Density : 0.000 g/cm3
Volume (V) : 0.000 m³
Text export
   Mode : Standard
   Time format : Elapsed
Cycle Definition : Charge/Discharge alternance
Mode                Single sine
E (V)               0.0000
vs.                 Eoc
tE (h:m:s)          0:00:3.0000
record              1
dI                  0.000
unit dI             mA
dt (s)              60.000
fi                  200.000
unit fi             kHz
ff                  10.000
unit ff             mHz
Nd                  8
Points              per decade
spacing             Logarithmic
Va (mV)             20.0
pw                  3.00
Na                  5
corr                0
E range min (V)     -1.000
E range max (V)     1.000
I Range             Auto
Bandwidth           5
nc cycles           0
goto Ns'            0
nr cycles           0
inc. cycle          0

freq/Hz	Re(Z)/Ohm	-Im(Z)/Ohm	|Z|/Ohm	Phase(Z)/deg	time/s	<Ewe>/V	<I>/mA	Cs/µF	Cp/µF	cycle number	I Range	|Ewe|/V	|I|/A	Re(Y)/Ohm-1	Im(Y)/Ohm-1	|Y|/Ohm-1	Phase(Y)/deg	Re(C)/nF	Im(C)/nF	|C|/nF	Phase(C)/deg	Re(M)	Im(M)	|M|	Phase(M)/deg	Re(Permittivity)	Im(Permittivity)	|Permittivity|	Phase(Permittivity)/deg	Re(Resistivity)/Ohm.cm	Im(Resistivity)/Ohm.cm	|Resistivity|/Ohm.cm	Phase(Resistivity)/deg	Re(Conductivity)/mS/cm	Im(Conductivity)/mS/cm	|Conductivity|/mS/cm	Phase(Conductivity)/deg	Tan(Delta)	Loss Angle(Delta)/deg
200019	153.839	-0.399587	153.839	0.148822	09/05/2018 15:23:44.3331	0.0029142	-0.0014419	-1.9913	-1.34346e-05	1	11	0.0179333	0.000116571	0.00650027	-1.68841e-05	0.00650029	-0.148822	-0.0134343	5.17225	5.17226	-90.1488	0.0000000E+000	0.0000000E+000	0.0000000E+000	90.1488	0.0000000E+000	0.0000000E+000	0.0000000E+000	-90.1488	0.0000000E+000	0.0000000E+000	0.0000000E+000	0.148822	0.0000000E+000	0.0000000E+000	0.0000000E+000	-0.148822	384.995	89.8512
83828.1	153.01	0.88777	153.012	-0.332429	09/05/2018 15:23:47.5271	0.00345842	0.00195509	2.1386	7.19908e-05	1	11	0.0207001	0.000135284	0.00653531	3.79181e-05	0.00653542	0.332429	0.0719907	12.4078	12.4081	-89.6676	0.0000000E+000	0.0000000E+000	0.0000000E+000	89.6676	0.0000000E+000	0.0000000E+000	0.0000000E+000	-89.6676	0.0000000E+000	0.0000000E+000	0.0000000E+000	-0.332429	0.0000000E+000	0.0000000E+000	0.0000000E+000	0.332429	172.353	89.6676
35136.7	153.478	1.52397	153.485	-0.568906	09/05/2018 15:23:50.7221	0.00347962	0.00200619	2.97222	0.000293024	1	11	0.0204382	0.000133161	0.00651496	6.4691e-05	0.00651528	0.568906	0.293025	29.5101	29.5115	-89.4311	0.0000000E+000	0.0000000E+000	0.0000000E+000	89.4311	0.0000000E+000	0.0000000E+000	0.0000000E+000	-89.4311	0.0000000E+000	0.0000000E+000	0.0000000E+000	-0.568906	0.0000000E+000	0.0000000E+000	0.0000000E+000	0.568906	100.709	89.4311
14726.6	154.248	2.04084	154.261	-0.758032	09/05/2018 15:23:53.7911	0.00348196	0.00199537	5.29553	0.000926859	1	11	0.0202265	0.000131118	0.00648193	8.57619e-05	0.0064825	0.758032	0.926861	70.0525	70.0586	-89.242	0.0000000E+000	0.0000000E+000	0.0000000E+000	89.242	0.0000000E+000	0.0000000E+000	0.0000000E+000	-89.242	0.0000000E+000	0.0000000E+000	0.0000000E+000	-0.758032	0.0000000E+000	0.0000000E+000	0.0000000E+000	0.758032	75.5805	89.242
6195.49	155.299	2.9591	155.328	-1.09159	09/05/2018 15:23:57.2368	0.00348582	0.0019937	8.6813	0.0031507	1	11	0.0213693	0.000137576	0.00643684	0.000122649	0.00643801	1.09159	3.1507	165.355	165.385	-88.9084	0.0000000E+000	0.0000000E+000	0.0000000E+000	88.9084	0.0000000E+000	0.0000000E+000	0.0000000E+000	-88.9084	0.0000000E+000	0.0000000E+000	0.0000000E+000	-1.09159	0.0000000E+000	0.0000000E+000	0.0000000E+000	1.09159	52.482	88.9084
2585.83	156.901	4.49888	156.965	-1.64242	09/05/2018 15:24:02.2987	0.00348677	0.00198624	13.681	0.0112388	1	11	0.0215849	0.000137514	0.00636822	0.000182599	0.00637084	1.64242	11.2388	391.958	392.119	-88.3576	0.0000000E+000	0.0000000E+000	0.0000000E+000	88.3576	0.0000000E+000	0.0000000E+000	0.0000000E+000	-88.3576	0.0000000E+000	0.0000000E+000	0.0000000E+000	-1.64242	0.0000000E+000	0.0000000E+000	0.0000000E+000	1.64242	34.8755	88.3576
1083.96	159.299	6.8005	159.445	-2.44448	09/05/2018 15:24:07.3640	0.00348513	0.00196236	21.5907	0.0392761	1	11	0.0216192	0.000135591	0.00626607	0.000267499	0.00627177	2.44448	39.2761	920.03	920.868	-87.5555	0.0000000E+000	0.0000000E+000	0.0000000E+000	87.5555	0.0000000E+000	0.0000000E+000	0.0000000E+000	-87.5555	0.0000000E+000	0.0000000E+000	0.0000000E+000	-2.44448	0.0000000E+000	0.0000000E+000	0.0000000E+000	2.44448	23.4247	87.5555
454.564	162.881	10.4981	163.219	-3.68774	09/05/2018 15:24:12.4179	0.00347606	0.00189093	33.3516	0.137973	1	11	0.0216225	0.000132475	0.00611405	0.000394065	0.00612674	3.68774	137.973	2140.69	2145.14	-86.3123	0.0000000E+000	0.0000000E+000	0.0000000E+000	86.3123	0.0000000E+000	0.0000000E+000	0.0000000E+000	-86.3123	0.0000000E+000	0.0000000E+000	0.0000000E+000	-3.68774	0.0000000E+000	0.0000000E+000	0.0000000E+000	3.68774	15.5153	86.3123
190.549	168.281	16.5386	169.092	-5.61298	09/05/2018 15:24:17.4782	0.0034801	0.00192189	50.5027	0.483133	1	11	0.0216166	0.000127839	0.00588558	0.000578432	0.00591394	5.61298	483.133	4915.9	4939.59	-84.387	0.0000000E+000	0.0000000E+000	0.0000000E+000	84.387	0.0000000E+000	0.0000000E+000	0.0000000E+000	-84.387	0.0000000E+000	0.0000000E+000	0.0000000E+000	-5.61298	0.0000000E+000	0.0000000E+000	0.0000000E+000	5.61298	10.1751	84.387
79.8212	176.799	26.4369	178.765	-8.50445	09/05/2018 15:24:22.5442	0.00348377	0.0019148	75.4209	1.64948	1	11	0.021616	0.000120918	0.00553243	0.000827267	0.00559394	8.50445	1649.48	11031.1	11153.7	-81.4956	0.0000000E+000	0.0000000E+000	0.0000000E+000	81.4956	0.0000000E+000	0.0000000E+000	0.0000000E+000	-81.4956	0.0000000E+000	0.0000000E+000	0.0000000E+000	-8.50445	0.0000000E+000	0.0000000E+000	0.0000000E+000	8.50445	6.6876	81.4956
33.4276	190.772	42.779	195.51	-12.639	09/05/2018 15:24:27.9442	0.00347018	0.000173113	111.297	5.32854	1	12	0.0216305	0.000110636	0.00499089	0.00111916	0.00511483	12.639	5328.54	23762.6	24352.7	-77.361	0.0000000E+000	0.0000000E+000	0.0000000E+000	77.361	0.0000000E+000	0.0000000E+000	0.0000000E+000	-77.361	0.0000000E+000	0.0000000E+000	0.0000000E+000	-12.639	0.0000000E+000	0.0000000E+000	0.0000000E+000	12.639	4.45948	77.361
14.0176	213.633	68.8941	224.467	-17.8739	09/05/2018 15:24:33.2218	0.00347476	0.000190808	164.802	15.5246	1	12	0.0216241	9.63354e-05	0.00423997	0.00136734	0.00445499	17.8739	15524.6	48140.2	50581.6	-72.1261	0.0000000E+000	0.0000000E+000	0.0000000E+000	72.1261	0.0000000E+000	0.0000000E+000	0.0000000E+000	-72.1261	0.0000000E+000	0.0000000E+000	0.0000000E+000	-17.8739	0.0000000E+000	0.0000000E+000	0.0000000E+000	17.8739	3.10089	72.1261
5.88291	251.436	110.015	274.451	-23.6316	09/05/2018 15:24:38.4027	0.00347604	0.00027669	245.91	39.5139	1	12	0.0216171	7.87649e-05	0.00333808	0.00146057	0.00364363	23.6316	39513.9	90307.9	98574.1	-66.3684	0.0000000E+000	0.0000000E+000	0.0000000E+000	66.3684	0.0000000E+000	0.0000000E+000	0.0000000E+000	-66.3684	0.0000000E+000	0.0000000E+000	0.0000000E+000	-23.6316	0.0000000E+000	0.0000000E+000	0.0000000E+000	23.6316	2.28547	66.3684
2.46607	316.108	172.388	360.059	-28.6056	09/05/2018 15:24:46.1424	0.00348194	0.000184929	374.376	85.8175	1	12	0.0216169	6.00372e-05	0.00243831	0.00132972	0.00277733	28.6056	85817.5	157364	179243	-61.3944	0.0000000E+000	0.0000000E+000	0.0000000E+000	61.3944	0.0000000E+000	0.0000000E+000	0.0000000E+000	-61.3944	0.0000000E+000	0.0000000E+000	0.0000000E+000	-28.6056	0.0000000E+000	0.0000000E+000	0.0000000E+000	28.6056	1.8337	61.3944
1.0334	422.335	254.728	493.207	-31.0959	09/05/2018 15:25:05.0080	0.00348245	2.34066e-05	604.611	161.276	1	13	0.0216202	4.38359e-05	0.0017362	0.00104717	0.00202755	31.0959	161276	267393	312264	-58.9041	0.0000000E+000	0.0000000E+000	0.0000000E+000	58.9041	0.0000000E+000	0.0000000E+000	0.0000000E+000	-58.9041	0.0000000E+000	0.0000000E+000	0.0000000E+000	-31.0959	0.0000000E+000	0.0000000E+000	0.0000000E+000	31.0959	1.65799	58.9041
0.433065	577.181	350.354	675.193	-31.2581	09/05/2018 15:25:47.8814	0.00348339	-3.3207e-05	1048.96	282.434	1	13	0.0216153	3.20136e-05	0.00126607	0.000768512	0.00148106	31.2581	282434	465289	544301	-58.7419	0.0000000E+000	0.0000000E+000	0.0000000E+000	58.7419	0.0000000E+000	0.0000000E+000	0.0000000E+000	-58.7419	0.0000000E+000	0.0000000E+000	0.0000000E+000	-31.2581	0.0000000E+000	0.0000000E+000	0.0000000E+000	31.2581	1.64742	58.7419
0.181534	740.136	459.569	871.209	-31.8372	09/05/2018 15:27:29.9198	0.00348543	9.19177e-06	1907.7	530.845	1	13	0.0216164	2.4812e-05	0.000975139	0.000605488	0.00114783	31.8372	530845	854926	1.00633e+06	-58.1628	0.0000000E+000	0.0000000E+000	0.0000000E+000	58.1628	0.0000000E+000	0.0000000E+000	0.0000000E+000	-58.1628	0.0000000E+000	0.0000000E+000	0.0000000E+000	-31.8372	0.0000000E+000	0.0000000E+000	0.0000000E+000	31.8372	1.6105	58.1628
0.0761037	834.928	743.4	1117.92	-41.6811	09/05/2018 15:31:32.9282	0.00349024	1.66682e-05	2813.14	1243.98	1	13	0.0216163	1.93362e-05	0.000668077	0.00059484	0.000894517	41.6811	1.24398e+06	1.39714e+06	1.8707e+06	-48.3189	0.0000000E+000	0.0000000E+000	0.0000000E+000	48.3189	0.0000000E+000	0.0000000E+000	0.0000000E+000	-48.3189	0.0000000E+000	0.0000000E+000	0.0000000E+000	-41.6811	0.0000000E+000	0.0000000E+000	0.0000000E+000	41.6811	1.12312	48.3189
0.0319138	902.12	1539.84	1784.64	-59.636	09/05/2018 15:41:12.2256	0.00348628	2.88849e-05	3238.66	2411.11	1	13	0.0216145	1.21114e-05	0.000283246	0.000483477	0.000560337	59.636	2.41111e+06	1.41255e+06	2.79442e+06	-30.364	0.0000000E+000	0.0000000E+000	0.0000000E+000	30.364	0.0000000E+000	0.0000000E+000	0.0000000E+000	-30.364	0.0000000E+000	0.0000000E+000	0.0000000E+000	-59.636	0.0000000E+000	0.0000000E+000	0.0000000E+000	59.636	0.585852	30.364
0.0133776	1012.45	3488.31	3632.27	-73.8151	09/05/2018 16:04:14.8539	0.00348106	1.92104e-05	3410.58	3145.59	1	13	0.0216164	5.95121e-06	7.67394e-05	0.000264399	0.00027531	73.8151	3.14559e+06	912980	3.2754e+06	-16.1849	0.0000000E+000	0.0000000E+000	0.0000000E+000	16.1849	0.0000000E+000	0.0000000E+000	0.0000000E+000	-16.1849	0.0000000E+000	0.0000000E+000	0.0000000E+000	-73.8151	0.0000000E+000	0.0000000E+000	0.0000000E+000	73.8151	0.290241	16.1849
0.0100058	1073.49	4608.37	4731.75	-76.8871	09/05/2018 16:19:15.1253	0.00349028	2.74579e-06	3451.62	3273.96	1	14	0.0216166	4.56841e-06	4.79464e-05	0.000205828	0.000211338	76.8871	3.27396e+06	762650	3.36162e+06	-13.1129	0.0000000E+000	0.0000000E+000	0.0000000E+000	13.1129	0.0000000E+000	0.0000000E+000	0.0000000E+000	-13.1129	0.0000000E+000	0.0000000E+000	0.0000000E+000	-76.8871	0.0000000E+000	0.0000000E+000	0.0000000E+000	76.8871	0.232944	13.1129