File: exp data/EIS mpt files/two combined/RM_stacked second run DS_3+12_2_C06.mpt
EC-Lab ASCII FILE
Nb header lines : 66

Potentio Electrochemical Impedance Spectroscopy

Run on channel : 6 (SN 13224)
User :
CE vs. WE compliance from -10 V to 10 V
Electrode connection : standard
Potential control : Ewe
Ewe ctrl range : min = -1.00 V, max = 1.00 V
Safety Limits :
	Do not start on E overload
Acquisition started on : 09/05/2018 15:23:46.000
Loaded Setting File : NONE
Saved on :
	File : RM_stacked second run DS_3+12_2_C06.mpr
	Directory : D:\Robert\Stacked cells\Second run 3% and 12% PVDF electrodes 12%compressed\
	Host : 10.5.5.6
Device : VMP3 (SN 0628)
Address : 10.5.5.5
EC-Lab for windows v11.17 (software)
Internet server v11.16 (firmware)
Command interpretor v11.16 (firmware)
Electrode material :
Initial state :
Electrolyte :
Comments :
Electrode surface area : 0.001 cm²
Characteristic mass : 0.001 g
Equivalent Weight : 0.000 g/eq.
Density : 0.000 g/cm3
Volume (V) : 0.000 m³
Text export
   Mode : Standard
   Time format : Elapsed
Cycle Definition : Charge/Discharge alternance
Mode                Single sine
E (V)               0.0000
vs.                 Eoc
tE (h:m:s)          0:00:3.0000
record              1
dI                  0.000
unit dI             mA
dt (s)              60.000
fi                  200.000
unit fi             kHz
ff                  10.000
unit ff             mHz
Nd                  8
Points              per decade
spacing             Logarithmic
Va (mV)             20.0
pw                  3.00
Na                  5
corr                0
E range min (V)     -1.000
E range max (V)     1.000
I Range             Auto
Bandwidth           5
nc cycles           0
goto Ns'            0
nr cycles           0
inc. cycle          0

freq/Hz	Re(Z)/Ohm	-Im(Z)/Ohm	|Z|/Ohm	Phase(Z)/deg	time/s	<Ewe>/V	<I>/mA	Cs/µF	Cp/µF	cycle number	I Range	|Ewe|/V	|I|/A	Re(Y)/Ohm-1	Im(Y)/Ohm-1	|Y|/Ohm-1	Phase(Y)/deg	Re(C)/nF	Im(C)/nF	|C|/nF	Phase(C)/deg	Re(M)	Im(M)	|M|	Phase(M)/deg	Re(Permittivity)	Im(Permittivity)	|Permittivity|	Phase(Permittivity)/deg	Re(Resistivity)/Ohm.cm	Im(Resistivity)/Ohm.cm	|Resistivity|/Ohm.cm	Phase(Resistivity)/deg	Re(Conductivity)/mS/cm	Im(Conductivity)/mS/cm	|Conductivity|/mS/cm	Phase(Conductivity)/deg	Tan(Delta)	Loss Angle(Delta)/deg
200019	138.568	0.256298	138.569	-0.105975	09/05/2018 15:23:51.1871	-0.126969	-0.00799189	3.10458	1.06209e-05	1	11	0.0180784	0.000130465	0.00721662	1.33479e-05	0.00721664	0.105975	0.0106207	5.74225	5.74226	-89.894	0.0000000E+000	0.0000000E+000	0.0000000E+000	89.894	0.0000000E+000	0.0000000E+000	0.0000000E+000	-89.894	0.0000000E+000	0.0000000E+000	0.0000000E+000	-0.105975	0.0000000E+000	0.0000000E+000	0.0000000E+000	0.105975	540.655	89.894
83828.1	137.74	1.20262	137.745	-0.50024	09/05/2018 15:23:54.3801	-0.125472	0.00278181	1.57871	0.000120338	1	11	0.0206843	0.000150163	0.0072595	6.3383e-05	0.00725977	0.50024	0.120337	13.7828	13.7833	-89.4998	0.0000000E+000	0.0000000E+000	0.0000000E+000	89.4998	0.0000000E+000	0.0000000E+000	0.0000000E+000	-89.4998	0.0000000E+000	0.0000000E+000	0.0000000E+000	-0.50024	0.0000000E+000	0.0000000E+000	0.0000000E+000	0.50024	114.534	89.4998
35136.7	138.283	2.28066	138.302	-0.944877	09/05/2018 15:23:57.5731	-0.12548	0.00274731	1.98609	0.000540087	1	11	0.0203539	0.00014717	0.00722958	0.000119235	0.00723056	0.944877	0.540088	32.7471	32.7515	-89.0551	0.0000000E+000	0.0000000E+000	0.0000000E+000	89.0551	0.0000000E+000	0.0000000E+000	0.0000000E+000	-89.0551	0.0000000E+000	0.0000000E+000	0.0000000E+000	-0.944877	0.0000000E+000	0.0000000E+000	0.0000000E+000	0.944877	60.6329	89.0551
14726.6	139.609	3.51925	139.653	-1.444	09/05/2018 15:24:00.6401	-0.125485	0.00280326	3.07092	0.00195014	1	11	0.0213733	0.000153045	0.00715831	0.000180446	0.00716058	1.444	1.95014	77.3623	77.3869	-88.556	0.0000000E+000	0.0000000E+000	0.0000000E+000	88.556	0.0000000E+000	0.0000000E+000	0.0000000E+000	-88.556	0.0000000E+000	0.0000000E+000	0.0000000E+000	-1.444	0.0000000E+000	0.0000000E+000	0.0000000E+000	1.444	39.6701	88.556
6195.49	141.856	5.02284	141.944	-2.02789	09/05/2018 15:24:04.2118	-0.125473	0.00268726	5.11441	0.00640408	1	11	0.0208346	0.00014678	0.0070406	0.000249294	0.00704501	2.02789	6.40407	180.865	180.978	-87.9721	0.0000000E+000	0.0000000E+000	0.0000000E+000	87.9721	0.0000000E+000	0.0000000E+000	0.0000000E+000	-87.9721	0.0000000E+000	0.0000000E+000	0.0000000E+000	-2.02789	0.0000000E+000	0.0000000E+000	0.0000000E+000	2.02789	28.2421	87.9721
2585.83	145.021	6.56725	145.17	-2.59285	09/05/2018 15:24:09.2747	-0.125472	0.00275328	9.37211	0.0191801	1	11	0.0210652	0.000145107	0.00688143	0.000311624	0.00688848	2.59285	19.1801	423.545	423.979	-87.4072	0.0000000E+000	0.0000000E+000	0.0000000E+000	87.4072	0.0000000E+000	0.0000000E+000	0.0000000E+000	-87.4072	0.0000000E+000	0.0000000E+000	0.0000000E+000	-2.59285	0.0000000E+000	0.0000000E+000	0.0000000E+000	2.59285	22.0825	87.4072
1083.96	148.594	8.42336	148.832	-3.24447	09/05/2018 15:24:14.3410	-0.12547	0.00270125	17.431	0.0558341	1	11	0.0210882	0.000141691	0.00670821	0.00038027	0.00671898	3.24447	55.8341	984.949	986.53	-86.7555	0.0000000E+000	0.0000000E+000	0.0000000E+000	86.7555	0.0000000E+000	0.0000000E+000	0.0000000E+000	-86.7555	0.0000000E+000	0.0000000E+000	0.0000000E+000	-3.24447	0.0000000E+000	0.0000000E+000	0.0000000E+000	3.24447	17.6407	86.7555
454.564	152.869	11.5513	153.304	-4.32125	09/05/2018 15:24:19.3959	-0.125476	0.00267794	30.3107	0.172086	1	11	0.0210931	0.00013759	0.00650443	0.000491496	0.00652297	4.32125	172.086	2277.38	2283.87	-85.6788	0.0000000E+000	0.0000000E+000	0.0000000E+000	85.6788	0.0000000E+000	0.0000000E+000	0.0000000E+000	-85.6788	0.0000000E+000	0.0000000E+000	0.0000000E+000	-4.32125	0.0000000E+000	0.0000000E+000	0.0000000E+000	4.32125	13.2339	85.6788
190.549	158.635	17.2164	159.567	-6.19397	09/05/2018 15:24:24.4552	-0.12547	0.00269547	48.5145	0.56477	1	11	0.0210893	0.000132166	0.00623038	0.000676173	0.00626697	6.19397	564.77	5203.9	5234.46	-83.806	0.0000000E+000	0.0000000E+000	0.0000000E+000	83.806	0.0000000E+000	0.0000000E+000	0.0000000E+000	-83.806	0.0000000E+000	0.0000000E+000	0.0000000E+000	-6.19397	0.0000000E+000	0.0000000E+000	0.0000000E+000	6.19397	9.21419	83.806
79.8212	167.496	26.9693	169.653	-9.14695	09/05/2018 15:24:29.5212	-0.125478	0.00264978	73.9319	1.8683	1	11	0.0210886	0.000124304	0.00581942	0.000937011	0.00589437	9.14695	1868.3	11603.3	11752.7	-80.853	0.0000000E+000	0.0000000E+000	0.0000000E+000	80.853	0.0000000E+000	0.0000000E+000	0.0000000E+000	-80.853	0.0000000E+000	0.0000000E+000	0.0000000E+000	-9.14695	0.0000000E+000	0.0000000E+000	0.0000000E+000	9.14695	6.21061	80.853
33.4276	181.669	43.0476	186.7	-13.3307	09/05/2018 15:24:34.9302	-0.125478	0.000181608	110.603	5.87999	1	12	0.0210987	0.000113009	0.00521187	0.00123498	0.00535619	13.3307	5879.99	24814.7	25501.8	-76.6693	0.0000000E+000	0.0000000E+000	0.0000000E+000	76.6693	0.0000000E+000	0.0000000E+000	0.0000000E+000	-76.6693	0.0000000E+000	0.0000000E+000	0.0000000E+000	-13.3307	0.0000000E+000	0.0000000E+000	0.0000000E+000	13.3307	4.22019	76.6693
14.0176	204.68	68.8019	215.934	-18.5797	09/05/2018 15:24:40.2088	-0.125477	0.000220098	165.023	16.7533	1	12	0.0210889	9.76633e-05	0.00438967	0.00147556	0.00463104	18.5797	16753.3	49839.9	52580.3	-71.4203	0.0000000E+000	0.0000000E+000	0.0000000E+000	71.4203	0.0000000E+000	0.0000000E+000	0.0000000E+000	-71.4203	0.0000000E+000	0.0000000E+000	0.0000000E+000	-18.5797	0.0000000E+000	0.0000000E+000	0.0000000E+000	18.5797	2.97492	71.4203
5.88291	242.732	109.396	266.245	-24.2604	09/05/2018 15:24:45.3917	-0.12548	0.000136777	247.302	41.7509	1	12	0.0210859	7.91972e-05	0.00342424	0.00154325	0.00375594	24.2604	41750.9	92638.7	101612	-65.7396	0.0000000E+000	0.0000000E+000	0.0000000E+000	65.7396	0.0000000E+000	0.0000000E+000	0.0000000E+000	-65.7396	0.0000000E+000	0.0000000E+000	0.0000000E+000	-24.2604	0.0000000E+000	0.0000000E+000	0.0000000E+000	24.2604	2.21884	65.7396
2.46607	307.481	170.214	351.45	-28.9678	09/05/2018 15:24:53.1314	-0.125471	0.000228926	379.158	88.9371	1	12	0.0210864	5.99983e-05	0.00248938	0.00137806	0.00284536	28.9678	88937.1	160659	183633	-61.0322	0.0000000E+000	0.0000000E+000	0.0000000E+000	61.0322	0.0000000E+000	0.0000000E+000	0.0000000E+000	-61.0322	0.0000000E+000	0.0000000E+000	0.0000000E+000	-28.9678	0.0000000E+000	0.0000000E+000	0.0000000E+000	28.9678	1.80644	61.0322
1.0334	412.714	248.379	481.69	-31.0404	09/05/2018 15:25:11.9979	-0.125469	1.45734e-05	620.064	164.867	1	13	0.0210878	4.37789e-05	0.00177875	0.00107049	0.00207603	31.0404	164867	273947	319731	-58.9596	0.0000000E+000	0.0000000E+000	0.0000000E+000	58.9596	0.0000000E+000	0.0000000E+000	0.0000000E+000	-58.9596	0.0000000E+000	0.0000000E+000	0.0000000E+000	-31.0404	0.0000000E+000	0.0000000E+000	0.0000000E+000	31.0404	1.66163	58.9596
0.433065	560.747	339.326	655.423	-31.1795	09/05/2018 15:25:54.8720	-0.125469	4.97653e-05	1083.05	290.296	1	13	0.0210816	3.21649e-05	0.00130534	0.000789904	0.00152573	31.1795	290296	479723	560719	-58.8205	0.0000000E+000	0.0000000E+000	0.0000000E+000	58.8205	0.0000000E+000	0.0000000E+000	0.0000000E+000	-58.8205	0.0000000E+000	0.0000000E+000	0.0000000E+000	-31.1795	0.0000000E+000	0.0000000E+000	0.0000000E+000	31.1795	1.65253	58.8205
0.181534	715.345	450.134	845.185	-32.1803	09/05/2018 15:27:36.9093	-0.125465	2.71409e-05	1947.69	552.458	1	13	0.0210845	2.49466e-05	0.00100141	0.000630141	0.00118317	32.1803	552458	877957	1.03731e+06	-57.8197	0.0000000E+000	0.0000000E+000	0.0000000E+000	57.8197	0.0000000E+000	0.0000000E+000	0.0000000E+000	-57.8197	0.0000000E+000	0.0000000E+000	0.0000000E+000	-32.1803	0.0000000E+000	0.0000000E+000	0.0000000E+000	32.1803	1.58918	57.8197
0.0761037	807.615	733.832	1091.22	-42.2595	09/05/2018 15:31:39.9146	-0.125465	2.32286e-05	2849.82	1288.81	1	13	0.0210847	1.93222e-05	0.00067824	0.000616276	0.000916409	42.2595	1.28881e+06	1.4184e+06	1.91648e+06	-47.7405	0.0000000E+000	0.0000000E+000	0.0000000E+000	47.7405	0.0000000E+000	0.0000000E+000	0.0000000E+000	-47.7405	0.0000000E+000	0.0000000E+000	0.0000000E+000	-42.2595	0.0000000E+000	0.0000000E+000	0.0000000E+000	42.2595	1.10055	47.7404
0.0319138	868.878	1520.28	1751.05	-60.2509	09/05/2018 15:41:19.2049	-0.125464	1.05965e-05	3280.34	2472.66	1	13	0.0210847	1.20411e-05	0.000283374	0.000495819	0.000571084	60.2509	2.47266e+06	1.41319e+06	2.84801e+06	-29.7491	0.0000000E+000	0.0000000E+000	0.0000000E+000	29.7491	0.0000000E+000	0.0000000E+000	0.0000000E+000	-29.7491	0.0000000E+000	0.0000000E+000	0.0000000E+000	-60.2509	0.0000000E+000	0.0000000E+000	0.0000000E+000	60.2509	0.571526	29.7491
0.0133776	962.722	3452.88	3584.58	-74.4206	09/05/2018 16:04:21.8179	-0.125467	2.31488e-05	3445.57	3197.04	1	13	0.0210838	5.88181e-06	7.49246e-05	0.000268723	0.000278973	74.4206	3.19704e+06	891389	3.31898e+06	-15.5794	0.0000000E+000	0.0000000E+000	0.0000000E+000	15.5794	0.0000000E+000	0.0000000E+000	0.0000000E+000	-15.5794	0.0000000E+000	0.0000000E+000	0.0000000E+000	-74.4206	0.0000000E+000	0.0000000E+000	0.0000000E+000	74.4206	0.278817	15.5794
0.0100058	1012.7	4564.26	4675.26	-77.49	09/05/2018 16:19:22.0793	-0.12546	1.45711e-06	3484.98	3321.46	1	14	0.0210853	4.50997e-06	4.6331e-05	0.000208814	0.000213892	77.49	3.32146e+06	736956	3.40224e+06	-12.51	0.0000000E+000	0.0000000E+000	0.0000000E+000	12.51	0.0000000E+000	0.0000000E+000	0.0000000E+000	-12.51	0.0000000E+000	0.0000000E+000	0.0000000E+000	-77.49	0.0000000E+000	0.0000000E+000	0.0000000E+000	77.49	0.221877	12.51