File: exp data/EIS mpt files/two combined/RM_stacked second run DS_12+3_2_C08.mpt
EC-Lab ASCII FILE
Nb header lines : 66

Potentio Electrochemical Impedance Spectroscopy

Run on channel : 8 (SN 13213)
User :
CE vs. WE compliance from -10 V to 10 V
Electrode connection : standard
Potential control : Ewe
Ewe ctrl range : min = -1.00 V, max = 1.00 V
Safety Limits :
	Do not start on E overload
Acquisition started on : 09/05/2018 15:24:09.000
Loaded Setting File : NONE
Saved on :
	File : RM_stacked second run DS_12+3_2_C08.mpr
	Directory : D:\Robert\Stacked cells\Second run 3% and 12% PVDF electrodes 12%compressed\
	Host : 10.5.5.6
Device : VMP3 (SN 0628)
Address : 10.5.5.5
EC-Lab for windows v11.17 (software)
Internet server v11.16 (firmware)
Command interpretor v11.16 (firmware)
Electrode material :
Initial state :
Electrolyte :
Comments :
Electrode surface area : 0.001 cm²
Characteristic mass : 0.001 g
Equivalent Weight : 0.000 g/eq.
Density : 0.000 g/cm3
Volume (V) : 0.000 m³
Text export
   Mode : Standard
   Time format : Elapsed
Cycle Definition : Charge/Discharge alternance
Mode                Single sine
E (V)               0.0000
vs.                 Eoc
tE (h:m:s)          0:00:3.0000
record              1
dI                  0.000
unit dI             mA
dt (s)              60.000
fi                  200.000
unit fi             kHz
ff                  8.000
unit ff             mHz
Nd                  8
Points              per decade
spacing             Logarithmic
Va (mV)             20.0
pw                  3.00
Na                  5
corr                0
E range min (V)     -1.000
E range max (V)     1.000
I Range             Auto
Bandwidth           5
nc cycles           0
goto Ns'            0
nr cycles           0
inc. cycle          0

freq/Hz	Re(Z)/Ohm	-Im(Z)/Ohm	|Z|/Ohm	Phase(Z)/deg	time/s	<Ewe>/V	<I>/mA	Cs/µF	Cp/µF	cycle number	I Range	|Ewe|/V	|I|/A	Re(Y)/Ohm-1	Im(Y)/Ohm-1	|Y|/Ohm-1	Phase(Y)/deg	Re(C)/nF	Im(C)/nF	|C|/nF	Phase(C)/deg	Re(M)	Im(M)	|M|	Phase(M)/deg	Re(Permittivity)	Im(Permittivity)	|Permittivity|	Phase(Permittivity)/deg	Re(Resistivity)/Ohm.cm	Im(Resistivity)/Ohm.cm	|Resistivity|/Ohm.cm	Phase(Resistivity)/deg	Re(Conductivity)/mS/cm	Im(Conductivity)/mS/cm	|Conductivity|/mS/cm	Phase(Conductivity)/deg	Tan(Delta)	Loss Angle(Delta)/deg
200019	168.612	2.89793	168.637	-0.984644	09/05/2018 15:24:14.3321	-0.00925336	0.00369966	0.274574	8.1083e-05	1	11	0.0182584	0.00010827	0.00592902	0.000101902	0.00592989	0.984644	0.0810828	4.7177	4.7184	-89.0154	0.0000000E+000	0.0000000E+000	0.0000000E+000	89.0154	0.0000000E+000	0.0000000E+000	0.0000000E+000	-89.0154	0.0000000E+000	0.0000000E+000	0.0000000E+000	-0.984644	0.0000000E+000	0.0000000E+000	0.0000000E+000	0.984644	58.1836	89.0154
84111.3	168.276	3.43247	168.311	-1.16855	09/05/2018 15:24:17.5241	-0.00934216	0.0029365	0.551263	0.000229271	1	11	0.0206928	0.000122944	0.00594016	0.000121167	0.00594139	1.16855	0.229272	11.2399	11.2423	-88.8314	0.0000000E+000	0.0000000E+000	0.0000000E+000	88.8314	0.0000000E+000	0.0000000E+000	0.0000000E+000	-88.8314	0.0000000E+000	0.0000000E+000	0.0000000E+000	-1.16855	0.0000000E+000	0.0000000E+000	0.0000000E+000	1.16855	49.0246	88.8314
35371.1	170.146	4.84551	170.215	-1.63126	09/05/2018 15:24:20.7181	-0.00934074	0.00298181	0.928607	0.000752513	1	11	0.0204051	0.000119878	0.00587253	0.000167241	0.00587491	1.63126	0.752513	26.4239	26.4346	-88.3687	0.0000000E+000	0.0000000E+000	0.0000000E+000	88.3687	0.0000000E+000	0.0000000E+000	0.0000000E+000	-88.3687	0.0000000E+000	0.0000000E+000	0.0000000E+000	-1.63126	0.0000000E+000	0.0000000E+000	0.0000000E+000	1.63126	35.1142	88.3687
14873	173.479	5.40332	173.563	-1.78401	09/05/2018 15:24:23.7851	-0.00934788	0.00291673	1.98043	0.00191941	1	11	0.0202837	0.000116867	0.00575881	0.000179369	0.0057616	1.78401	1.91941	61.6245	61.6543	-88.216	0.0000000E+000	0.0000000E+000	0.0000000E+000	88.216	0.0000000E+000	0.0000000E+000	0.0000000E+000	-88.216	0.0000000E+000	0.0000000E+000	0.0000000E+000	-1.78401	0.0000000E+000	0.0000000E+000	0.0000000E+000	1.78401	32.1059	88.216
6295.45	176.183	5.183	176.259	-1.68506	09/05/2018 15:24:27.2025	-0.00933665	0.00278379	4.87767	0.00421765	1	11	0.0213513	0.000121136	0.00567101	0.000166831	0.00567346	1.68506	4.21766	143.369	143.431	-88.3149	0.0000000E+000	0.0000000E+000	0.0000000E+000	88.3149	0.0000000E+000	0.0000000E+000	0.0000000E+000	-88.3149	0.0000000E+000	0.0000000E+000	0.0000000E+000	-1.68506	0.0000000E+000	0.0000000E+000	0.0000000E+000	1.68506	33.9925	88.3149
2630.84	178.612	5.36739	178.693	-1.72125	09/05/2018 15:24:32.2677	-0.00933246	0.00281139	11.271	0.0101689	1	11	0.0215611	0.00012066	0.00559367	0.000168093	0.00559619	1.72125	10.1689	338.394	338.547	-88.2787	0.0000000E+000	0.0000000E+000	0.0000000E+000	88.2787	0.0000000E+000	0.0000000E+000	0.0000000E+000	-88.2787	0.0000000E+000	0.0000000E+000	0.0000000E+000	-1.72125	0.0000000E+000	0.0000000E+000	0.0000000E+000	1.72125	33.2773	88.2787
1106.77	181.192	6.88667	181.323	-2.17663	09/05/2018 15:24:37.3264	-0.00933216	0.00280803	20.8811	0.0301209	1	11	0.0215943	0.000119093	0.00551105	0.000209462	0.00551503	2.17663	30.1209	792.495	793.067	-87.8234	0.0000000E+000	0.0000000E+000	0.0000000E+000	87.8234	0.0000000E+000	0.0000000E+000	0.0000000E+000	-87.8234	0.0000000E+000	0.0000000E+000	0.0000000E+000	-2.17663	0.0000000E+000	0.0000000E+000	0.0000000E+000	2.17663	26.3105	87.8234
465.149	184.698	9.82063	184.959	-3.04362	09/05/2018 15:24:42.3857	-0.00933593	0.00275843	34.8409	0.0982234	1	11	0.0215984	0.000116774	0.00539897	0.000287069	0.00540659	3.04362	98.2234	1847.31	1849.92	-86.9564	0.0000000E+000	0.0000000E+000	0.0000000E+000	86.9564	0.0000000E+000	0.0000000E+000	0.0000000E+000	-86.9564	0.0000000E+000	0.0000000E+000	0.0000000E+000	-3.04362	0.0000000E+000	0.0000000E+000	0.0000000E+000	3.04362	18.8072	86.9564
195.815	189.848	14.7418	190.419	-4.44014	09/05/2018 15:24:47.4399	-0.00933602	0.00274147	55.1347	0.330449	1	11	0.0215943	0.000113404	0.00523581	0.000406564	0.00525157	4.44014	330.449	4255.59	4268.4	-85.5599	0.0000000E+000	0.0000000E+000	0.0000000E+000	85.5599	0.0000000E+000	0.0000000E+000	0.0000000E+000	-85.5599	0.0000000E+000	0.0000000E+000	0.0000000E+000	-4.44014	0.0000000E+000	0.0000000E+000	0.0000000E+000	4.44014	12.8782	85.5599
82.3451	197.809	22.6416	199.1	-6.52978	09/05/2018 15:24:52.4381	-0.00933201	0.0027961	85.364	1.10394	1	11	0.0215969	0.000108472	0.00499001	0.000571167	0.00502259	6.52978	1103.94	9644.58	9707.56	-83.4702	0.0000000E+000	0.0000000E+000	0.0000000E+000	83.4702	0.0000000E+000	0.0000000E+000	0.0000000E+000	-83.4702	0.0000000E+000	0.0000000E+000	0.0000000E+000	-6.52978	0.0000000E+000	0.0000000E+000	0.0000000E+000	6.52978	8.73652	83.4702
34.6123	210.286	34.8412	213.153	-9.40757	09/05/2018 15:24:57.6780	-0.00934337	0.000250295	131.976	3.52614	1	12	0.021602	0.000101345	0.00462837	0.00076685	0.00469147	9.40757	3526.14	21282.2	21572.4	-80.5924	0.0000000E+000	0.0000000E+000	0.0000000E+000	80.5924	0.0000000E+000	0.0000000E+000	0.0000000E+000	-80.5924	0.0000000E+000	0.0000000E+000	0.0000000E+000	-9.40757	0.0000000E+000	0.0000000E+000	0.0000000E+000	9.40757	6.03556	80.5924
14.5756	229.562	53.0798	235.619	-13.0192	09/05/2018 15:25:02.7776	-0.00933656	0.000237033	205.715	10.4401	1	12	0.0215988	9.16687e-05	0.00413505	0.000956115	0.00424415	13.0192	10440.1	45151.9	46343.1	-76.9808	0.0000000E+000	0.0000000E+000	0.0000000E+000	76.9808	0.0000000E+000	0.0000000E+000	0.0000000E+000	-76.9808	0.0000000E+000	0.0000000E+000	0.0000000E+000	-13.0192	0.0000000E+000	0.0000000E+000	0.0000000E+000	13.0192	4.32485	76.9808
6.12265	258.998	80.3679	271.181	-17.2393	09/05/2018 15:25:07.7751	-0.0093355	0.000290772	323.443	28.4083	1	12	0.0215953	7.96344e-05	0.00352191	0.00109286	0.00368757	17.2393	28408.3	91550.2	95856.5	-72.7607	0.0000000E+000	0.0000000E+000	0.0000000E+000	72.7607	0.0000000E+000	0.0000000E+000	0.0000000E+000	-72.7607	0.0000000E+000	0.0000000E+000	0.0000000E+000	-17.2393	0.0000000E+000	0.0000000E+000	0.0000000E+000	17.2393	3.22266	72.7607
2.57329	303.347	121.44	326.752	-21.818	09/05/2018 15:25:15.2055	-0.00932486	0.000281951	509.294	70.349	1	12	0.0215956	6.60917e-05	0.0028412	0.00113743	0.00306042	21.818	70349	175725	189284	-68.182	0.0000000E+000	0.0000000E+000	0.0000000E+000	68.182	0.0000000E+000	0.0000000E+000	0.0000000E+000	-68.182	0.0000000E+000	0.0000000E+000	0.0000000E+000	-21.818	0.0000000E+000	0.0000000E+000	0.0000000E+000	21.818	2.49791	68.182
1.08236	369.815	183.509	412.842	-26.3915	09/05/2018 15:25:32.4990	-0.00932649	0.000270712	801.288	158.321	1	12	0.0215958	5.23101e-05	0.00216978	0.00107669	0.00242223	26.3915	158320	319053	356175	-63.6085	0.0000000E+000	0.0000000E+000	0.0000000E+000	63.6085	0.0000000E+000	0.0000000E+000	0.0000000E+000	-63.6085	0.0000000E+000	0.0000000E+000	0.0000000E+000	-26.3915	0.0000000E+000	0.0000000E+000	0.0000000E+000	26.3915	2.01524	63.6085
0.455911	471.616	275.534	546.206	-30.2949	09/05/2018 15:26:14.5744	-0.00931423	5.28788e-05	1266.96	322.405	1	13	0.0215989	3.95434e-05	0.0015808	0.000923555	0.00183081	30.2949	322405	551843	639121	-59.7051	0.0000000E+000	0.0000000E+000	0.0000000E+000	59.7051	0.0000000E+000	0.0000000E+000	0.0000000E+000	-59.7051	0.0000000E+000	0.0000000E+000	0.0000000E+000	-30.2949	0.0000000E+000	0.0000000E+000	0.0000000E+000	30.2949	1.71164	59.7051
0.191483	597.541	398.639	718.309	-33.7086	09/05/2018 15:27:51.3457	-0.00932436	5.09142e-05	2085.02	642.166	1	13	0.0215962	3.00654e-05	0.0011581	0.000772604	0.00139216	33.7086	642166	962576	1.15712e+06	-56.2914	0.0000000E+000	0.0000000E+000	0.0000000E+000	56.2914	0.0000000E+000	0.0000000E+000	0.0000000E+000	-56.2914	0.0000000E+000	0.0000000E+000	0.0000000E+000	-33.7086	0.0000000E+000	0.0000000E+000	0.0000000E+000	33.7086	1.49895	56.2914
0.0805064	679.6	675.077	957.907	-44.8087	09/05/2018 15:31:41.2325	-0.00931922	4.43896e-05	2928.44	1454.44	1	13	0.0215945	2.25434e-05	0.000740639	0.00073571	0.00104394	44.8087	1.45444e+06	1.46419e+06	2.0638e+06	-45.1913	0.0000000E+000	0.0000000E+000	0.0000000E+000	45.1913	0.0000000E+000	0.0000000E+000	0.0000000E+000	-45.1913	0.0000000E+000	0.0000000E+000	0.0000000E+000	-44.8087	0.0000000E+000	0.0000000E+000	0.0000000E+000	44.8087	1.0067	45.1913
0.0339084	735.846	1412.09	1592.31	-62.4757	09/05/2018 15:40:47.2870	-0.00932209	4.27346e-05	3323.92	2614.07	1	13	0.0215944	1.35616e-05	0.000290222	0.000556935	0.000628017	62.4757	2.61407e+06	1.36221e+06	2.94771e+06	-27.5243	0.0000000E+000	0.0000000E+000	0.0000000E+000	27.5243	0.0000000E+000	0.0000000E+000	0.0000000E+000	-27.5243	0.0000000E+000	0.0000000E+000	0.0000000E+000	-62.4757	0.0000000E+000	0.0000000E+000	0.0000000E+000	62.4757	0.521105	27.5243
0.0142564	819.167	3207.49	3310.44	-75.6734	09/05/2018 16:02:25.1402	-0.00932124	3.56146e-05	3480.53	3267.41	1	13	0.0215928	6.52263e-06	7.47482e-05	0.00029268	0.000302074	75.6734	3.26741e+06	834471	3.37229e+06	-14.3266	0.0000000E+000	0.0000000E+000	0.0000000E+000	14.3266	0.0000000E+000	0.0000000E+000	0.0000000E+000	-14.3266	0.0000000E+000	0.0000000E+000	0.0000000E+000	-75.6734	0.0000000E+000	0.0000000E+000	0.0000000E+000	75.6734	0.255392	14.3266
0.0080046	923.075	5603.81	5679.33	-80.6461	09/05/2018 16:33:39.7816	-0.00930946	1.03827e-06	3548.11	3454.38	1	14	0.0215921	3.80187e-06	2.86182e-05	0.000173736	0.000176077	80.6461	3.45438e+06	569014	3.50093e+06	-9.35391	0.0000000E+000	0.0000000E+000	0.0000000E+000	9.35391	0.0000000E+000	0.0000000E+000	0.0000000E+000	-9.35391	0.0000000E+000	0.0000000E+000	0.0000000E+000	-80.6461	0.0000000E+000	0.0000000E+000	0.0000000E+000	80.6461	0.164723	9.35391